File: Test_Data_Files/20250424_G_CHI105_2mmAu_E000_PBSarg_CV50000.DTA
EXPLAIN
TAG	CV
TITLE	LABEL	Cyclic Voltammetry	Test &Identifier
DATE	LABEL	4/24/2025	Date
TIME	LABEL	17:03:24	Time
NOTES	NOTES	3	&Notes...

PSTAT	PSTAT	IFC1010-32247	Potentiostat
VINIT	POTEN	0.00000E+000	T	Initial &E (V)
VLIMIT1	POTEN	-6.00000E-001	F	Scan Limit &1 (V)
VLIMIT2	POTEN	8.00000E-001	F	Scan Limit &2 (V)
VFINAL	POTEN	0.00000E+000	T	Final &E (V)
SCANRATE	QUANT	4.99999E+004	&Scan Rate (mV/s)
STEPSIZE	QUANT	1.00000E+001	St&ep Size (mV)
CYCLES	IQUANT	3	C&ycles (#)
IMODE	SELECTOR	1	I/E Range &Mode
IRANGE	QUANT	1.00000E-001	&Max Current (mA)
AREA	QUANT	1.00000E+000	Electrode &Area (cm^2)
ELECTRODETYPE	SELECTOR	0	Electrode Type
STRIPPING	TOGGLE	F	Used for Stripping
CONDIT	TWOPARAM	F	1.50000E+001	0.00000E+000	Conditionin&g	Time(s)	E(V)
DELAY	TWOPARAM	T	1.50000E+001	0.00000E+000	Init. De&lay	Time(s)	Stab.(mV/s)
EQDELAY	QUANT	0.00000E+000	Equil. &Time (s)
IRCOMP	SELECTOR	0	IRCom&p
PFCOR	QUANT	5.00000E+001	PF Corr. (ohm)
SAMPLINGMODE	SELECTOR	2	Sampling &Mode
OCVCURVE	TABLE	58
	Pt	T	Vf	Vm	Ach	Over	Temp
	#	s	V vs. Ref.	V	V	bits	deg C
	0	0.258333	2.85712E-001	2.85712E-001	0.00000E+000	...........	1367.83
	1	0.516667	2.85711E-001	2.85653E-001	0.00000E+000	...........	1367.83
	2	0.775	2.85705E-001	2.85627E-001	0.00000E+000	...........	1367.91
	3	1.03333	2.85688E-001	2.85577E-001	0.00000E+000	...........	1367.91
	4	1.29167	2.85660E-001	2.85522E-001	0.00000E+000	...........	1367.91
	5	1.55	2.85622E-001	2.85477E-001	0.00000E+000	...........	1367.91
	6	1.80833	2.85578E-001	2.85449E-001	0.00000E+000	...........	1368.00
	7	2.06667	2.85532E-001	2.85411E-001	0.00000E+000	...........	1368.00
	8	2.325	2.85489E-001	2.85345E-001	0.00000E+000	...........	1368.00
	9	2.58333	2.85447E-001	2.85304E-001	0.00000E+000	...........	1368.00
	10	2.84167	2.85403E-001	2.85281E-001	0.00000E+000	...........	1368.00
	11	3.1	2.85358E-001	2.85214E-001	0.00000E+000	...........	1368.00
	12	3.35833	2.85314E-001	2.85171E-001	0.00000E+000	...........	1368.00
	13	3.61667	2.85269E-001	2.85123E-001	0.00000E+000	...........	1368.00
	14	3.875	2.85223E-001	2.85092E-001	0.00000E+000	...........	1368.00
	15	4.13333	2.85177E-001	2.85044E-001	0.00000E+000	...........	1368.00
	16	4.39167	2.85133E-001	2.85013E-001	0.00000E+000	...........	1368.00
	17	4.65	2.85091E-001	2.84948E-001	0.00000E+000	...........	1367.92
	18	4.90833	2.85049E-001	2.84921E-001	0.00000E+000	...........	1367.91
	19	5.16667	2.85006E-001	2.84865E-001	0.00000E+000	...........	1367.91
	20	5.425	2.84962E-001	2.84813E-001	0.00000E+000	...........	1367.91
	21	5.68333	2.84916E-001	2.84782E-001	0.00000E+000	...........	1367.91
	22	5.94167	2.84870E-001	2.84732E-001	0.00000E+000	...........	1367.91
	23	6.2	2.84825E-001	2.84713E-001	0.00000E+000	...........	1367.91
	24	6.45833	2.84783E-001	2.84657E-001	0.00000E+000	...........	1367.91
	25	6.71667	2.84743E-001	2.84610E-001	0.00000E+000	...........	1368.00
	26	6.975	2.84703E-001	2.84562E-001	0.00000E+000	...........	1368.00
	27	7.23333	2.84660E-001	2.84540E-001	0.00000E+000	...........	1368.00
	28	7.49167	2.84616E-001	2.84469E-001	0.00000E+000	...........	1368.00
	29	7.75	2.84573E-001	2.84450E-001	0.00000E+000	...........	1368.00
	30	8.00833	2.84530E-001	2.84400E-001	0.00000E+000	...........	1368.00
	31	8.26667	2.84487E-001	2.84347E-001	0.00000E+000	...........	1368.00
	32	8.525	2.84444E-001	2.84310E-001	0.00000E+000	...........	1368.00
	33	8.78333	2.84401E-001	2.84263E-001	0.00000E+000	...........	1368.00
	34	9.04167	2.84356E-001	2.84222E-001	0.00000E+000	...........	1368.00
	35	9.3	2.84312E-001	2.84179E-001	0.00000E+000	...........	1368.00
	36	9.5583	2.84268E-001	2.84132E-001	0.00000E+000	...........	1368.00
	37	9.8167	2.84224E-001	2.84089E-001	0.00000E+000	...........	1367.91
	38	10.075	2.84181E-001	2.84054E-001	0.00000E+000	...........	1367.91
	39	10.3333	2.84138E-001	2.84016E-001	0.00000E+000	...........	1367.91
	40	10.5917	2.84096E-001	2.83962E-001	0.00000E+000	...........	1367.91
	41	10.85	2.84055E-001	2.83901E-001	0.00000E+000	...........	1368.00
	42	11.1083	2.84011E-001	2.83881E-001	0.00000E+000	...........	1368.00
	43	11.3667	2.83965E-001	2.83837E-001	0.00000E+000	...........	1368.00
	44	11.625	2.83921E-001	2.83808E-001	0.00000E+000	...........	1367.78
	45	11.8833	2.83880E-001	2.83753E-001	0.00000E+000	...........	1367.48
	46	12.1417	2.83841E-001	2.83720E-001	0.00000E+000	...........	1367.48
	47	12.4	2.83802E-001	2.83676E-001	0.00000E+000	...........	1367.48
	48	12.6583	2.83762E-001	2.83622E-001	0.00000E+000	...........	1367.91
	49	12.9167	2.83719E-001	2.83580E-001	0.00000E+000	...........	1367.91
	50	13.175	2.83675E-001	2.83539E-001	0.00000E+000	...........	1367.91
	51	13.4333	2.83630E-001	2.83502E-001	0.00000E+000	...........	1367.91
	52	13.6917	2.83586E-001	2.83466E-001	0.00000E+000	...........	1367.91
	53	13.95	2.83545E-001	2.83430E-001	0.00000E+000	...........	1367.91
	54	14.2083	2.83506E-001	2.83383E-001	0.00000E+000	...........	1367.91
	55	14.4667	2.83467E-001	2.83332E-001	0.00000E+000	...........	1367.91
	56	14.725	2.83427E-001	2.83289E-001	0.00000E+000	...........	1368.00
	57	14.9833	2.83384E-001	2.83250E-001	0.00000E+000	...........	1368.00
EOC	QUANT	0.2833837	Open Circuit (V)
PSTATMODEL	IQUANT	64	Pstat Model
PSTATSECTION	LABEL	IFC1010-32247	Pstat Section
PSTATSERIALNO	LABEL	32247	Pstat Serial Number
CTRLMODE	IQUANT	1	Control Mode
ELECTROMETER	IQUANT	0	RE=0 or CS=1
IESTAB	IQUANT	2	I/E Stability
CASPEED	IQUANT	4	Control Amp Speed
CONVENTION	IQUANT	1	Current Convention
ICHRANGE	IQUANT	2	Ich Range
ICHRANGEMODE	TOGGLE	F	Ich Auto Range
ICHOFFSETENABLE	TOGGLE	F	Ich Offset Enable
ICHOFFSET	QUANT	0	Ich Offset (V)
ICHFILTER	IQUANT	2	Ich Filter
VCHRANGE	IQUANT	2	Vch Range
VCHRANGEMODE	TOGGLE	F	Vch Auto Range
VCHOFFSETENABLE	TOGGLE	F	Vch Offset Enable
VCHOFFSET	QUANT	0	Vch Offset (V)
VCHFILTER	IQUANT	2	Vch Filter
IERANGELOWERLIMIT	IQUANT	4	I/E Range Lower Limit
IERANGEMODE	TOGGLE	F	I/E AutoRange
IERANGE	IQUANT	9	I/E Range
ACHSELECT	IQUANT	0	Ach Select
ACHRANGE	IQUANT	2	Ach Range
ACHOFFSETENABLE	TOGGLE	F	Ach Offset Enable
ACHOFFSET	QUANT	0	Ach Offset (V)
ACHFILTER	IQUANT	1	Ach Filter
SENSECABLEID	IQUANT	14	Sense Cable ID
PWRCABLEID	IQUANT	14	Power Cable ID
DCCALDATE	LABEL	11/18/2024	DC Calibration Date
ACCALDATE	LABEL	4/18/2022	AC Calibration Date
FRAMEWORKVERSION	LABEL	7.10.3	Framework Version
INSTRUMENTVERSION	LABEL	4.91	Instrument Version
COMMVERSION	LABEL	3.10	Communications Version
CPUPLDVERSION	LABEL	2.22	CPU PLD Version
CTRLPLDVERSION	LABEL	0.00	CTRL PLD Version
PSTATPLDVERSION	LABEL	0.00	PSTAT PLD Version
CURVE1	TABLE
	Pt	T	Vf	Im	Vu	Sig	Ach	IERange	Over	Temp
	#	s	V vs. Ref.	A	V	V	V	#	bits	deg C
	0	0.0002	2.83419E-001	2.81055E-007	0.00000E+000	2.83376E-001	0.00000E+000	9	...........	1368.00
	3	0.0008	2.53851E-001	-1.43949E-004	0.00000E+000	2.53384E-001	0.00000E+000	9	...........	1368.00
	6	0.0014	2.23863E-001	-2.05156E-004	0.00000E+000	2.23392E-001	0.00000E+000	9	...........	1368.00
	9	0.002	1.93835E-001	-2.32194E-004	0.00000E+000	1.93399E-001	0.00000E+000	9	...........	1368.00
	12	0.0026	1.63797E-001	-2.44403E-004	0.00000E+000	1.63407E-001	0.00000E+000	9	...........	1368.00
	15	0.0032	1.33829E-001	-2.50216E-004	0.00000E+000	1.33365E-001	0.00000E+000	9	...........	1368.00
	18	0.0038	1.03811E-001	-2.54149E-004	0.00000E+000	1.03373E-001	0.00000E+000	9	...........	1368.00
	21	0.0044	7.37927E-002	-2.50430E-004	0.00000E+000	7.33802E-002	0.00000E+000	9	...........	1368.00
	24	0.005	4.38046E-002	-2.44506E-004	0.00000E+000	4.33879E-002	0.00000E+000	9	...........	1368.00
	27	0.0056	1.37765E-002	-2.41901E-004	0.00000E+000	1.33955E-002	0.00000E+000	9	...........	1368.00
	30	0.0062	-1.61716E-002	-2.43078E-004	0.00000E+000	-1.65968E-002	0.00000E+000	9	...........	1368.00
	33	0.0068	-4.62197E-002	-2.48138E-004	0.00000E+000	-4.66391E-002	0.00000E+000	9	...........	1368.00
	36	0.0074	-7.62577E-002	-2.56657E-004	0.00000E+000	-7.66314E-002	0.00000E+000	9	...........	1368.00
	39	0.008	-1.06226E-001	-2.67188E-004	0.00000E+000	-1.06624E-001	0.00000E+000	9	...........	1368.00
	42	0.0086	-1.36204E-001	-2.76671E-004	0.00000E+000	-1.36616E-001	0.00000E+000	9	...........	1368.00
	45	0.0092	-1.66242E-001	-2.84539E-004	0.00000E+000	-1.66608E-001	0.00000E+000	9	...........	1368.00
	48	0.0098	-1.96230E-001	-2.90303E-004	0.00000E+000	-1.96601E-001	0.00000E+000	9	...........	1368.00
	51	0.0104	-2.26168E-001	-2.95080E-004	0.00000E+000	-2.26593E-001	0.00000E+000	9	...........	1368.00
	54	0.011	-2.56266E-001	-3.00360E-004	0.00000E+000	-2.56635E-001	0.00000E+000	9	...........	1368.00
	57	0.0116	-2.86234E-001	-3.06211E-004	0.00000E+000	-2.86628E-001	0.00000E+000	9	...........	1368.00
	60	0.0122	-3.16232E-001	-3.12838E-004	0.00000E+000	-3.16620E-001	0.00000E+000	9	...........	1368.00
	63	0.0128	-3.46230E-001	-3.18058E-004	0.00000E+000	-3.46612E-001	0.00000E+000	9	...........	1368.00
	66	0.0134	-3.76219E-001	-3.19710E-004	0.00000E+000	-3.76605E-001	0.00000E+000	9	...........	1368.00
	69	0.014	-4.06207E-001	-3.16734E-004	0.00000E+000	-4.06597E-001	0.00000E+000	9	...........	1368.00
	72	0.0146	-4.36305E-001	-3.09673E-004	0.00000E+000	-4.36639E-001	0.00000E+000	9	...........	1368.00
	75	0.0152	-4.66293E-001	-2.98792E-004	0.00000E+000	-4.66632E-001	0.00000E+000	9	...........	1368.00
	78	0.0158	-4.96291E-001	-2.85146E-004	0.00000E+000	-4.96624E-001	0.00000E+000	9	...........	1368.00
	81	0.0164	-5.26259E-001	-2.68892E-004	0.00000E+000	-5.26616E-001	0.00000E+000	9	...........	1368.00
	84	0.017	-5.56287E-001	-2.50573E-004	0.00000E+000	-5.56609E-001	0.00000E+000	9	...........	1368.00
	87	0.0176	-5.86215E-001	-2.31604E-004	0.00000E+000	-5.86601E-001	0.00000E+000	9	...........	1368.00
	90	0.0182	-5.77053E-001	-3.67670E-005	0.00000E+000	-5.76603E-001	0.00000E+000	9	...........	1368.00
	93	0.0188	-5.47024E-001	5.54179E-005	0.00000E+000	-5.46611E-001	0.00000E+000	9	...........	1368.00
	96	0.0194	-5.17026E-001	9.46741E-005	0.00000E+000	-5.16619E-001	0.00000E+000	9	...........	1368.00
	99	0.02	-4.87008E-001	1.19894E-004	0.00000E+000	-4.86626E-001	0.00000E+000	9	...........	1368.00
	102	0.0206	-4.57000E-001	1.40445E-004	0.00000E+000	-4.56634E-001	0.00000E+000	9	...........	1368.00
	105	0.0212	-4.26972E-001	1.59127E-004	0.00000E+000	-4.26592E-001	0.00000E+000	9	...........	1368.00
	108	0.0218	-3.96954E-001	1.75632E-004	0.00000E+000	-3.96600E-001	0.00000E+000	9	...........	1368.00
	111	0.0224	-3.67026E-001	1.91052E-004	0.00000E+000	-3.66607E-001	0.00000E+000	9	...........	1368.00
	114	0.023	-3.37008E-001	2.04611E-004	0.00000E+000	-3.36615E-001	0.00000E+000	9	...........	1368.00
	117	0.0236	-3.06970E-001	2.16369E-004	0.00000E+000	-3.06623E-001	0.00000E+000	9	...........	1368.00
	120	0.0242	-2.77012E-001	2.26876E-004	0.00000E+000	-2.76630E-001	0.00000E+000	9	...........	1368.00
	123	0.0248	-2.46994E-001	2.35835E-004	0.00000E+000	-2.46638E-001	0.00000E+000	9	...........	1368.00
	126	0.0254	-2.16946E-001	2.43497E-004	0.00000E+000	-2.16596E-001	0.00000E+000	9	...........	1368.00
	129	0.026	-1.86978E-001	2.49344E-004	0.00000E+000	-1.86603E-001	0.00000E+000	9	...........	1368.00
	132	0.0266	-1.56979E-001	2.53724E-004	0.00000E+000	-1.56611E-001	0.00000E+000	9	...........	1368.00
	135	0.0272	-1.27001E-001	2.56322E-004	0.00000E+000	-1.26619E-001	0.00000E+000	9	...........	1368.00
	138	0.0278	-9.70233E-002	2.57183E-004	0.00000E+000	-9.66263E-002	0.00000E+000	9	...........	1368.00
	141	0.0284	-6.70253E-002	2.56859E-004	0.00000E+000	-6.66340E-002	0.00000E+000	9	...........	1368.00
	144	0.029	-3.69872E-002	2.56746E-004	0.00000E+000	-3.65917E-002	0.00000E+000	9	...........	1368.00
	147	0.0296	-6.98908E-003	2.57880E-004	0.00000E+000	-6.59934E-003	0.00000E+000	9	...........	1368.00
	150	0.0302	2.30390E-002	2.60638E-004	0.00000E+000	2.33930E-002	0.00000E+000	9	...........	1368.00
	153	0.0308	5.30171E-002	2.61235E-004	0.00000E+000	5.33853E-002	0.00000E+000	9	...........	1368.00
	156	0.0314	8.30452E-002	2.61205E-004	0.00000E+000	8.33776E-002	0.00000E+000	9	...........	1368.00
	159	0.032	1.13003E-001	2.63097E-004	0.00000E+000	1.13370E-001	0.00000E+000	9	...........	1368.00
	162	0.0326	1.43031E-001	2.67820E-004	0.00000E+000	1.43362E-001	0.00000E+000	9	...........	1368.00
	165	0.0332	1.73029E-001	2.75368E-004	0.00000E+000	1.73405E-001	0.00000E+000	9	...........	1368.00
	168	0.0338	2.03037E-001	2.85782E-004	0.00000E+000	2.03397E-001	0.00000E+000	9	...........	1368.00
	171	0.0344	2.33036E-001	3.00188E-004	0.00000E+000	2.33389E-001	0.00000E+000	9	...........	1368.00
	174	0.035	2.62994E-001	3.18894E-004	0.00000E+000	2.63382E-001	0.00000E+000	9	...........	1368.00
	177	0.0356	2.93002E-001	3.36556E-004	0.00000E+000	2.93374E-001	0.00000E+000	9	...........	1368.00
	180	0.0362	3.22960E-001	3.49551E-004	0.00000E+000	3.23366E-001	0.00000E+000	9	...........	1368.00
	183	0.0368	3.53048E-001	3.59198E-004	0.00000E+000	3.53409E-001	0.00000E+000	9	...........	1368.00
	186	0.0374	3.83066E-001	3.63100E-004	0.00000E+000	3.83401E-001	0.00000E+000	9	...........	1368.00
	189	0.038	4.13024E-001	3.62150E-004	0.00000E+000	4.13393E-001	0.00000E+000	9	...........	1368.00
	192	0.0386	4.43042E-001	3.57820E-004	0.00000E+000	4.43385E-001	0.00000E+000	9	...........	1368.00
	195	0.0392	4.73050E-001	3.51149E-004	0.00000E+000	4.73378E-001	0.00000E+000	9	...........	1368.00
	198	0.0398	5.03048E-001	3.42100E-004	0.00000E+000	5.03370E-001	0.00000E+000	9	...........	1368.00
	201	0.0404	5.33026E-001	3.29685E-004	0.00000E+000	5.33362E-001	0.00000E+000	9	...........	1368.00
	204	0.041	5.63114E-001	3.15822E-004	0.00000E+000	5.63405E-001	0.00000E+000	9	...........	1368.00
	207	0.0416	5.93083E-001	3.01125E-004	0.00000E+000	5.93397E-001	0.00000E+000	9	...........	1368.00
	210	0.0422	6.23071E-001	2.87496E-004	0.00000E+000	6.23389E-001	0.00000E+000	9	...........	1368.00
	213	0.0428	6.53069E-001	2.75842E-004	0.00000E+000	6.53382E-001	0.00000E+000	9	...........	1368.00
	216	0.0434	6.83077E-001	2.66135E-004	0.00000E+000	6.83374E-001	0.00000E+000	9	...........	1368.00
	219	0.044	7.13055E-001	2.55799E-004	0.00000E+000	7.13366E-001	0.00000E+000	9	...........	1368.00
	222	0.0446	7.43133E-001	2.44064E-004	0.00000E+000	7.43359E-001	0.00000E+000	9	...........	1368.00
	225	0.0452	7.73091E-001	2.33524E-004	0.00000E+000	7.73401E-001	0.00000E+000	9	...........	1368.00
	228	0.0458	8.03149E-001	2.26215E-004	0.00000E+000	8.03393E-001	0.00000E+000	9	...........	1368.00
CURVE2	TABLE
	Pt	T	Vf	Im	Vu	Sig	Ach	IERange	Over	Temp
	#	s	V vs. Ref.	A	V	V	V	#	bits	deg C
	229	0.046	7.90816E-001	9.33833E-005	0.00000E+000	7.89997E-001	0.00000E+000	9	...........	1368.00
	232	0.0466	7.60458E-001	-3.67137E-005	0.00000E+000	7.60004E-001	0.00000E+000	9	...........	1368.00
	235	0.0472	7.30480E-001	-8.77478E-005	0.00000E+000	7.30012E-001	0.00000E+000	9	...........	1368.00
	238	0.0478	7.00471E-001	-1.18228E-004	0.00000E+000	7.00020E-001	0.00000E+000	9	...........	1368.00
	241	0.0484	6.70403E-001	-1.43395E-004	0.00000E+000	6.69977E-001	0.00000E+000	9	...........	1368.00
	244	0.049	6.40435E-001	-1.66854E-004	0.00000E+000	6.39985E-001	0.00000E+000	9	...........	1368.00
	247	0.0496	6.10417E-001	-1.89462E-004	0.00000E+000	6.09993E-001	0.00000E+000	9	...........	1368.00
	250	0.0502	5.80479E-001	-2.09169E-004	0.00000E+000	5.80001E-001	0.00000E+000	9	...........	1368.00
	253	0.0508	5.50441E-001	-2.24046E-004	0.00000E+000	5.50008E-001	0.00000E+000	9	...........	1368.00
	256	0.0514	5.20463E-001	-2.36401E-004	0.00000E+000	5.20016E-001	0.00000E+000	9	...........	1368.00
	259	0.052	4.90475E-001	-2.47982E-004	0.00000E+000	4.90024E-001	0.00000E+000	9	...........	1368.00
	262	0.0526	4.60417E-001	-2.60557E-004	0.00000E+000	4.59981E-001	0.00000E+000	9	...........	1368.00
	265	0.0532	4.30399E-001	-2.74219E-004	0.00000E+000	4.29989E-001	0.00000E+000	9	...........	1368.00
	268	0.0538	4.00421E-001	-2.89413E-004	0.00000E+000	3.99997E-001	0.00000E+000	9	...........	1368.00
	271	0.0544	3.70423E-001	-3.05180E-004	0.00000E+000	3.70004E-001	0.00000E+000	9	...........	1368.00
	274	0.055	3.40425E-001	-3.20390E-004	0.00000E+000	3.40012E-001	0.00000E+000	9	...........	1368.00
	277	0.0556	3.10436E-001	-3.32745E-004	0.00000E+000	3.10020E-001	0.00000E+000	9	...........	1368.00
	280	0.0562	2.80428E-001	-3.41411E-004	0.00000E+000	2.79977E-001	0.00000E+000	9	...........	1368.00
	283	0.0568	2.50410E-001	-3.46251E-004	0.00000E+000	2.49985E-001	0.00000E+000	9	...........	1368.00
	286	0.0574	2.20402E-001	-3.47488E-004	0.00000E+000	2.19993E-001	0.00000E+000	9	...........	1368.00
	289	0.058	1.90414E-001	-3.44610E-004	0.00000E+000	1.90000E-001	0.00000E+000	9	...........	1368.00
	292	0.0586	1.60386E-001	-3.38889E-004	0.00000E+000	1.60008E-001	0.00000E+000	9	...........	1368.00
	295	0.0592	1.30408E-001	-3.28799E-004	0.00000E+000	1.30016E-001	0.00000E+000	9	...........	1368.00
	298	0.0598	1.00430E-001	-3.10193E-004	0.00000E+000	1.00023E-001	0.00000E+000	9	...........	1368.00
	301	0.0604	7.03117E-002	-2.90293E-004	0.00000E+000	6.99811E-002	0.00000E+000	9	...........	1368.00
	304	0.061	4.03137E-002	-2.74149E-004	0.00000E+000	3.99887E-002	0.00000E+000	9	...........	1368.00
	307	0.0616	1.03356E-002	-2.63385E-004	0.00000E+000	9.99641E-003	0.00000E+000	9	...........	1368.00
	310	0.0622	-1.96325E-002	-2.57511E-004	0.00000E+000	-1.99959E-002	0.00000E+000	9	...........	1368.00
	313	0.0628	-4.96206E-002	-2.56014E-004	0.00000E+000	-4.99882E-002	0.00000E+000	9	...........	1368.00
[...]
	689	0.138	-1.90348E-001	2.49448E-004	0.00000E+000	-1.90002E-001	0.00000E+000	9	...........	1368.00
	692	0.1386	-1.60390E-001	2.54251E-004	0.00000E+000	-1.60010E-001	0.00000E+000	9	...........	1368.00
	695	0.1392	-1.30422E-001	2.57249E-004	0.00000E+000	-1.30018E-001	0.00000E+000	9	...........	1368.00
	698	0.1398	-1.00334E-001	2.58881E-004	0.00000E+000	-9.99754E-002	0.00000E+000	9	...........	1368.00
	701	0.1404	-7.03662E-002	2.58534E-004	0.00000E+000	-6.99831E-002	0.00000E+000	9	...........	1368.00
	704	0.141	-4.03481E-002	2.58027E-004	0.00000E+000	-3.99908E-002	0.00000E+000	9	...........	1368.00
	707	0.1416	-1.03700E-002	2.58780E-004	0.00000E+000	-9.99847E-003	0.00000E+000	9	...........	1368.00
	710	0.1422	1.96381E-002	2.61966E-004	0.00000E+000	1.99939E-002	0.00000E+000	9	...........	1368.00
	713	0.1428	4.96762E-002	2.63617E-004	0.00000E+000	4.99862E-002	0.00000E+000	9	...........	1368.00
	716	0.1434	7.96442E-002	2.63977E-004	0.00000E+000	7.99785E-002	0.00000E+000	9	...........	1368.00
	719	0.144	1.09652E-001	2.65899E-004	0.00000E+000	1.10021E-001	0.00000E+000	9	...........	1368.00
	722	0.1446	1.39630E-001	2.70115E-004	0.00000E+000	1.40013E-001	0.00000E+000	9	...........	1368.00
	725	0.1452	1.69648E-001	2.77029E-004	0.00000E+000	1.70005E-001	0.00000E+000	9	...........	1368.00
	728	0.1458	1.99647E-001	2.86726E-004	0.00000E+000	1.99998E-001	0.00000E+000	9	...........	1368.00
	731	0.1464	2.29605E-001	3.00445E-004	0.00000E+000	2.29990E-001	0.00000E+000	9	...........	1368.00
	734	0.147	2.59623E-001	3.19838E-004	0.00000E+000	2.59982E-001	0.00000E+000	9	...........	1368.00
	737	0.1476	2.89641E-001	3.41162E-004	0.00000E+000	2.90025E-001	0.00000E+000	9	...........	1368.00
	740	0.1482	3.19669E-001	3.56653E-004	0.00000E+000	3.20017E-001	0.00000E+000	9	...........	1368.00
	743	0.1488	3.49597E-001	3.67547E-004	0.00000E+000	3.50009E-001	0.00000E+000	9	...........	1368.00
	746	0.1494	3.79625E-001	3.73671E-004	0.00000E+000	3.80002E-001	0.00000E+000	9	...........	1368.00
	749	0.15	4.09663E-001	3.74221E-004	0.00000E+000	4.09994E-001	0.00000E+000	9	...........	1368.00
	752	0.1506	4.39681E-001	3.70976E-004	0.00000E+000	4.39986E-001	0.00000E+000	9	...........	1368.00
	755	0.1512	4.69619E-001	3.64778E-004	0.00000E+000	4.69979E-001	0.00000E+000	9	...........	1368.00
	758	0.1518	4.99707E-001	3.56069E-004	0.00000E+000	5.00021E-001	0.00000E+000	9	...........	1368.00
	761	0.1524	5.29735E-001	3.42823E-004	0.00000E+000	5.30013E-001	0.00000E+000	9	...........	1368.00
	764	0.153	5.59714E-001	3.26813E-004	0.00000E+000	5.60006E-001	0.00000E+000	9	...........	1368.00
	767	0.1536	5.89722E-001	3.09524E-004	0.00000E+000	5.89998E-001	0.00000E+000	9	...........	1368.00
	770	0.1542	6.19730E-001	2.93047E-004	0.00000E+000	6.19990E-001	0.00000E+000	9	...........	1368.00
	773	0.1548	6.49688E-001	2.78637E-004	0.00000E+000	6.49983E-001	0.00000E+000	9	...........	1368.00
	776	0.1554	6.79776E-001	2.66999E-004	0.00000E+000	6.80025E-001	0.00000E+000	9	...........	1368.00
	779	0.156	7.09734E-001	2.54935E-004	0.00000E+000	7.10017E-001	0.00000E+000	9	...........	1368.00
	782	0.1566	7.39752E-001	2.41809E-004	0.00000E+000	7.40010E-001	0.00000E+000	9	...........	1368.00
	785	0.1572	7.69720E-001	2.30058E-004	0.00000E+000	7.70002E-001	0.00000E+000	9	...........	1368.00
	788	0.1578	7.99758E-001	2.22139E-004	0.00000E+000	7.99994E-001	0.00000E+000	9	...........	1368.00
CURVE4	TABLE
	Pt	T	Vf	Im	Vu	Sig	Ach	IERange	Over	Temp
	#	s	V vs. Ref.	A	V	V	V	#	bits	deg C
	789	0.158	7.90626E-001	1.08533E-004	0.00000E+000	7.89997E-001	0.00000E+000	9	...........	1368.00
	790	0.1582	7.80543E-001	4.06447E-005	0.00000E+000	7.79999E-001	0.00000E+000	9	...........	1368.00
	791	0.1584	7.70570E-001	-3.22129E-006	0.00000E+000	7.70002E-001	0.00000E+000	9	...........	1368.00
	792	0.1586	7.60498E-001	-3.36049E-005	0.00000E+000	7.60004E-001	0.00000E+000	9	...........	1368.00
	793	0.1588	7.50495E-001	-5.57831E-005	0.00000E+000	7.50007E-001	0.00000E+000	9	...........	1368.00
	794	0.159	7.40472E-001	-7.27478E-005	0.00000E+000	7.40010E-001	0.00000E+000	9	...........	1368.00
	795	0.1592	7.30530E-001	-8.64302E-005	0.00000E+000	7.30012E-001	0.00000E+000	9	...........	1368.00
	796	0.1594	7.20477E-001	-9.79646E-005	0.00000E+000	7.20015E-001	0.00000E+000	9	...........	1368.00
	797	0.1596	7.10484E-001	-1.08085E-004	0.00000E+000	7.10017E-001	0.00000E+000	9	...........	1368.00
	798	0.1598	7.00511E-001	-1.17378E-004	0.00000E+000	7.00020E-001	0.00000E+000	9	...........	1368.00
	799	0.16	6.90469E-001	-1.26187E-004	0.00000E+000	6.90022E-001	0.00000E+000	9	...........	1368.00
	800	0.1602	6.80446E-001	-1.34562E-004	0.00000E+000	6.80025E-001	0.00000E+000	9	...........	1368.00
	801	0.1604	6.70443E-001	-1.43008E-004	0.00000E+000	6.69977E-001	0.00000E+000	9	...........	1368.00
	802	0.1606	6.60451E-001	-1.51040E-004	0.00000E+000	6.59980E-001	0.00000E+000	9	...........	1368.00
	803	0.1608	6.50468E-001	-1.58992E-004	0.00000E+000	6.49983E-001	0.00000E+000	9	...........	1368.00
	804	0.161	6.40465E-001	-1.67101E-004	0.00000E+000	6.39985E-001	0.00000E+000	9	...........	1368.00
	805	0.1612	6.30453E-001	-1.74896E-004	0.00000E+000	6.29988E-001	0.00000E+000	9	...........	1368.00
	806	0.1614	6.20410E-001	-1.82731E-004	0.00000E+000	6.19990E-001	0.00000E+000	9	...........	1368.00
	807	0.1616	6.10447E-001	-1.90310E-004	0.00000E+000	6.09993E-001	0.00000E+000	9	...........	1368.00
	808	0.1618	6.00475E-001	-1.97538E-004	0.00000E+000	5.99995E-001	0.00000E+000	9	...........	1368.00
	809	0.162	5.90462E-001	-2.04226E-004	0.00000E+000	5.89998E-001	0.00000E+000	9	...........	1368.00
	810	0.1622	5.80499E-001	-2.10443E-004	0.00000E+000	5.80001E-001	0.00000E+000	9	...........	1368.00
	811	0.1624	5.70436E-001	-2.15987E-004	0.00000E+000	5.70003E-001	0.00000E+000	9	...........	1368.00
	812	0.1626	5.60444E-001	-2.21080E-004	0.00000E+000	5.60006E-001	0.00000E+000	9	...........	1368.00
	813	0.1628	5.50391E-001	-2.25863E-004	0.00000E+000	5.50008E-001	0.00000E+000	9	...........	1368.00
	814	0.163	5.40448E-001	-2.30173E-004	0.00000E+000	5.40011E-001	0.00000E+000	9	...........	1368.00
	815	0.1632	5.30496E-001	-2.34202E-004	0.00000E+000	5.30013E-001	0.00000E+000	9	...........	1368.00
	816	0.1634	5.20413E-001	-2.38665E-004	0.00000E+000	5.20016E-001	0.00000E+000	9	...........	1368.00
	817	0.1636	5.10460E-001	-2.42621E-004	0.00000E+000	5.10018E-001	0.00000E+000	9	...........	1368.00
	818	0.1638	5.00468E-001	-2.46704E-004	0.00000E+000	5.00021E-001	0.00000E+000	9	...........	1368.00
	819	0.164	4.90475E-001	-2.50910E-004	0.00000E+000	4.90024E-001	0.00000E+000	9	...........	1368.00
	820	0.1642	4.80412E-001	-2.55507E-004	0.00000E+000	4.79976E-001	0.00000E+000	9	...........	1368.00
	821	0.1644	4.70440E-001	-2.59950E-004	0.00000E+000	4.69979E-001	0.00000E+000	9	...........	1368.00
	822	0.1646	4.60427E-001	-2.64609E-004	0.00000E+000	4.59981E-001	0.00000E+000	9	...........	1368.00
	823	0.1648	4.50454E-001	-2.69329E-004	0.00000E+000	4.49984E-001	0.00000E+000	9	...........	1368.00
	824	0.165	4.40441E-001	-2.74433E-004	0.00000E+000	4.39986E-001	0.00000E+000	9	...........	1368.00
	825	0.1652	4.30439E-001	-2.79509E-004	0.00000E+000	4.29989E-001	0.00000E+000	9	...........	1368.00
	826	0.1654	4.20446E-001	-2.84966E-004	0.00000E+000	4.19991E-001	0.00000E+000	9	...........	1368.00
	827	0.1656	4.10453E-001	-2.90547E-004	0.00000E+000	4.09994E-001	0.00000E+000	9	...........	1368.00
	828	0.1658	4.00441E-001	-2.96224E-004	0.00000E+000	3.99997E-001	0.00000E+000	9	...........	1368.00
	829	0.166	3.90428E-001	-3.01894E-004	0.00000E+000	3.89999E-001	0.00000E+000	9	...........	1368.00
	830	0.1662	3.80405E-001	-3.07658E-004	0.00000E+000	3.80002E-001	0.00000E+000	9	...........	1368.00
	831	0.1664	3.70423E-001	-3.13419E-004	0.00000E+000	3.70004E-001	0.00000E+000	9	...........	1368.00
	832	0.1666	3.60450E-001	-3.19122E-004	0.00000E+000	3.60007E-001	0.00000E+000	9	...........	1368.00
	833	0.1668	3.50467E-001	-3.24579E-004	0.00000E+000	3.50009E-001	0.00000E+000	9	...........	1368.00
	834	0.167	3.40495E-001	-3.29863E-004	0.00000E+000	3.40012E-001	0.00000E+000	9	...........	1368.00
	835	0.1672	3.30422E-001	-3.34736E-004	0.00000E+000	3.30014E-001	0.00000E+000	9	...........	1368.00
	836	0.1674	3.20509E-001	-3.39006E-004	0.00000E+000	3.20017E-001	0.00000E+000	9	...........	1368.00
	837	0.1676	3.10476E-001	-3.42802E-004	0.00000E+000	3.10020E-001	0.00000E+000	9	...........	1368.00
	838	0.1678	3.00514E-001	-3.46027E-004	0.00000E+000	3.00022E-001	0.00000E+000	9	...........	1368.00
	839	0.168	2.90481E-001	-3.48742E-004	0.00000E+000	2.90025E-001	0.00000E+000	9	...........	1368.00
	840	0.1682	2.80388E-001	-3.51558E-004	0.00000E+000	2.79977E-001	0.00000E+000	9	...........	1368.00