File: Test_Data_Files/20250509_ZH_IF0011_IIA42_E08_PBSair_PEDOT_CV5000.DTA
EXPLAIN
TAG	CV
TITLE	LABEL	CV5000	Test Identifier
DATE	LABEL	5/9/2025	Date
TIME	LABEL	15:36:24	Time
NOTES	NOTES	1	Notes...

PSTAT	PSTAT	REF600P-43058	Potentiostat
VINIT	POTEN	0.00000E+000	T	Initial E (V)
VLIMIT1	POTEN	-9.00000E-001	F	Scan Limit 1 (V)
VLIMIT2	POTEN	6.00000E-001	F	Scan Limit 2 (V)
VFINAL	POTEN	0.00000E+000	T	Final E (V)
SCANRATE	QUANT	4.99999E+003	Scan Rate (mV/s)
STEPSIZE	QUANT	1.00000E+001	Step Size (mV)
CYCLES	IQUANT	3	Cycles (#)
IMODE	SELECTOR	1	I/E Range Mode
IRANGE	QUANT	1.00000E-002	Max Current (mA)
AREA	QUANT	1.00000E+000	Sample Area (cm^2)
EQDELAY	QUANT	5.00000E+000	Equil. Time (s)
IRCOMP	SELECTOR	0	IRComp
PFCOR	QUANT	5.00000E+001	PF Corr. (ohm)
SAMPLINGMODE	SELECTOR	2	Sampling Mode
EOC	QUANT	0.1530634	Open Circuit (V)
ELECTRODETYPE	SELECTOR	0	Electrode Type
STRIPPING	TOGGLE	F	Used for Stripping
SEQUENCER	TOGGLE	TRUE	Run as Sequence
PSTATMODEL	IQUANT	7	Pstat Model
PSTATSECTION	LABEL	REF600P-43058	Pstat Section
PSTATSERIALNO	LABEL	43058	Pstat Serial Number
CTRLMODE	IQUANT	1	Control Mode
ELECTROMETER	IQUANT	0	RE=0 or CS=1
IESTAB	IQUANT	2	I/E Stability
CASPEED	IQUANT	4	Control Amp Speed
CONVENTION	IQUANT	1	Current Convention
ICHRANGE	IQUANT	2	Ich Range
ICHRANGEMODE	TOGGLE	F	Ich Auto Range
ICHOFFSETENABLE	TOGGLE	F	Ich Offset Enable
ICHOFFSET	QUANT	0	Ich Offset (V)
ICHFILTER	IQUANT	2	Ich Filter
VCHRANGE	IQUANT	2	Vch Range
VCHRANGEMODE	TOGGLE	F	Vch Auto Range
VCHOFFSETENABLE	TOGGLE	F	Vch Offset Enable
VCHOFFSET	QUANT	0	Vch Offset (V)
VCHFILTER	IQUANT	2	Vch Filter
ACHRANGE	IQUANT	2	Ach Range
ACHOFFSETENABLE	TOGGLE	F	Ach Offset Enable
ACHOFFSET	QUANT	0	Ach Offset (V)
ACHFILTER	IQUANT	1	Ach Filter
IERANGELOWERLIMIT	IQUANT	1	I/E Range Lower Limit
IERANGEMODE	TOGGLE	F	I/E AutoRange
IERANGE	IQUANT	7	I/E Range
POSFEEDENABLE	TOGGLE	F	Positive Feedback IR Comp
POSFEEDRESISTANCE	QUANT	0	Positive Feedback Resistance (ohm)
ACHSELECT	IQUANT	4	Ach Select
SENSECABLEID	IQUANT	7	Sense Cable ID
PWRCABLEID	IQUANT	7	Power Cable ID
DCCALDATE	LABEL	5/8/2025	DC Calibration Date
ACCALDATE	LABEL	5/8/2025	AC Calibration Date
THERMOSELECT	IQUANT	1	Thermo Select
FRAMEWORKVERSION	LABEL	7.10.4	Framework Version
INSTRUMENTVERSION	LABEL	5.01	Instrument Version
COMMVERSION	LABEL	5.10	Communications Version
CPUPLDVERSION	LABEL	6.00	CPU PLD Version
CTRLPLDVERSION	LABEL	3.21	CTRL PLD Version
PSTATPLDVERSION	LABEL	0.00	PSTAT PLD Version
CURVE1	TABLE
	Pt	T	Vf	Im	Vu	Sig	Ach	IERange	Over	Temp
	#	s	V vs. Ref.	A	V	V	V	#	bits	deg C
	0	0.002	1.53097E-001	9.35513E-009	0.00000E+000	1.53050E-001	1.43333E-003	7	...........	-327.66
	3	0.008	1.23906E-001	-1.30972E-006	0.00000E+000	1.23050E-001	1.46264E-003	7	...........	-327.66
	6	0.014	9.38963E-002	-1.87635E-006	0.00000E+000	9.30500E-002	1.50057E-003	7	...........	-327.66
	9	0.02	6.39092E-002	-2.29653E-006	0.00000E+000	6.30500E-002	1.42126E-003	7	...........	-327.66
	12	0.026	3.38954E-002	-2.63751E-006	0.00000E+000	3.30500E-002	1.50919E-003	7	...........	-327.66
	15	0.032	3.89800E-003	-2.92411E-006	0.00000E+000	3.04998E-003	1.40747E-003	7	...........	-327.66
	18	0.038	-2.61373E-002	-3.16942E-006	0.00000E+000	-2.69500E-002	1.42126E-003	7	...........	-327.66
	21	0.044	-5.60899E-002	-3.38600E-006	0.00000E+000	-5.69500E-002	1.50057E-003	7	...........	-327.66
	24	0.05	-8.60555E-002	-3.57889E-006	0.00000E+000	-8.69500E-002	1.44712E-003	7	...........	-327.66
	27	0.056	-1.16081E-001	-3.75555E-006	0.00000E+000	-1.16950E-001	1.44884E-003	7	...........	-327.66
	30	0.062	-1.46122E-001	-3.91830E-006	0.00000E+000	-1.46950E-001	1.51264E-003	7	...........	-327.66
	33	0.068	-1.76094E-001	-4.07087E-006	0.00000E+000	-1.76950E-001	1.44540E-003	7	...........	-327.66
	36	0.074	-2.06080E-001	-4.21526E-006	0.00000E+000	-2.06950E-001	1.52126E-003	7	...........	-327.66
	39	0.08	-2.36068E-001	-4.35326E-006	0.00000E+000	-2.36950E-001	1.47471E-003	7	...........	-327.66
	42	0.086	-2.66021E-001	-4.48174E-006	0.00000E+000	-2.66950E-001	1.50402E-003	7	...........	-327.66
	45	0.092	-2.96044E-001	-4.60398E-006	0.00000E+000	-2.96950E-001	1.44367E-003	7	...........	-327.66
	48	0.098	-3.26062E-001	-4.71555E-006	0.00000E+000	-3.26950E-001	1.43505E-003	7	...........	-327.66
	51	0.104	-3.56103E-001	-4.81385E-006	0.00000E+000	-3.56950E-001	1.42298E-003	7	...........	-327.66
	54	0.11	-3.86083E-001	-4.89974E-006	0.00000E+000	-3.86950E-001	1.44367E-003	7	...........	-327.66
	57	0.116	-4.16019E-001	-4.97243E-006	0.00000E+000	-4.16950E-001	1.45747E-003	7	...........	-327.66
	60	0.122	-4.45989E-001	-5.02707E-006	0.00000E+000	-4.46950E-001	1.48160E-003	7	...........	-327.66
	63	0.128	-4.76022E-001	-5.07013E-006	0.00000E+000	-4.76950E-001	1.41953E-003	7	...........	-327.66
	66	0.134	-5.06074E-001	-5.10098E-006	0.00000E+000	-5.06950E-001	1.42988E-003	7	...........	-327.66
	69	0.14	-5.36055E-001	-5.11952E-006	0.00000E+000	-5.36950E-001	1.44884E-003	7	...........	-327.66
	72	0.146	-5.66049E-001	-5.12290E-006	0.00000E+000	-5.66950E-001	1.48850E-003	7	...........	-327.66
	75	0.152	-5.96065E-001	-5.10051E-006	0.00000E+000	-5.96950E-001	1.50747E-003	7	...........	-327.66
	78	0.158	-6.26019E-001	-5.02576E-006	0.00000E+000	-6.26950E-001	1.48333E-003	7	...........	-327.66
	81	0.164	-6.55974E-001	-4.86255E-006	0.00000E+000	-6.56950E-001	1.51436E-003	7	...........	-327.66
	84	0.17	-6.86051E-001	-4.56772E-006	0.00000E+000	-6.86950E-001	1.45229E-003	7	...........	-327.66
	87	0.176	-7.16055E-001	-4.11164E-006	0.00000E+000	-7.16950E-001	1.48678E-003	7	...........	-327.66
	90	0.182	-7.46057E-001	-3.50719E-006	0.00000E+000	-7.46950E-001	1.39195E-003	7	...........	-327.66
	93	0.188	-7.76011E-001	-2.84421E-006	0.00000E+000	-7.76950E-001	1.39712E-003	7	...........	-327.66
	96	0.194	-8.06026E-001	-2.21814E-006	0.00000E+000	-8.06950E-001	1.44712E-003	7	...........	-327.66
	99	0.2	-8.36055E-001	-1.72402E-006	0.00000E+000	-8.36950E-001	1.47471E-003	7	...........	-327.66
	102	0.206	-8.66068E-001	-1.37768E-006	0.00000E+000	-8.66950E-001	1.46264E-003	7	...........	-327.66
	105	0.212	-8.96049E-001	-1.13853E-006	0.00000E+000	-8.96950E-001	1.51609E-003	7	...........	-327.66
	108	0.218	-8.67599E-001	-8.15499E-007	0.00000E+000	-8.66950E-001	1.51781E-003	7	...........	-327.66
	111	0.224	-8.37642E-001	-6.42320E-007	0.00000E+000	-8.36950E-001	1.46609E-003	7	...........	-327.66
	114	0.23	-8.07618E-001	-5.05387E-007	0.00000E+000	-8.06950E-001	1.50919E-003	7	...........	-327.66
	117	0.236	-7.77602E-001	-3.67265E-007	0.00000E+000	-7.76950E-001	1.47643E-003	7	...........	-327.66
	120	0.242	-7.47619E-001	-2.02932E-007	0.00000E+000	-7.46950E-001	1.46264E-003	7	...........	-327.66
	123	0.248	-7.17670E-001	1.18037E-008	0.00000E+000	-7.16950E-001	1.41609E-003	7	...........	-327.66
	126	0.254	-6.87657E-001	3.03688E-007	0.00000E+000	-6.86950E-001	1.50574E-003	7	...........	-327.66
	129	0.26	-6.57624E-001	7.07278E-007	0.00000E+000	-6.56950E-001	1.42298E-003	7	...........	-327.66
	132	0.266	-6.27661E-001	1.26194E-006	0.00000E+000	-6.26950E-001	1.46781E-003	7	...........	-327.66
	135	0.272	-5.97668E-001	1.99418E-006	0.00000E+000	-5.96950E-001	1.41781E-003	7	...........	-327.66
	138	0.278	-5.67680E-001	2.89132E-006	0.00000E+000	-5.66950E-001	1.40229E-003	7	...........	-327.66
	141	0.284	-5.37691E-001	3.88118E-006	0.00000E+000	-5.36950E-001	1.51091E-003	7	...........	-327.66
	144	0.29	-5.07712E-001	4.75307E-006	0.00000E+000	-5.06950E-001	1.39367E-003	7	...........	-327.66
	147	0.296	-4.77673E-001	5.20820E-006	0.00000E+000	-4.76950E-001	1.41953E-003	7	...........	-327.66
	150	0.302	-4.47689E-001	5.20744E-006	0.00000E+000	-4.46950E-001	1.42471E-003	7	...........	-327.66
	153	0.308	-4.17659E-001	4.98619E-006	0.00000E+000	-4.16950E-001	1.51953E-003	7	...........	-327.66
	156	0.314	-3.87715E-001	4.75400E-006	0.00000E+000	-3.86950E-001	1.40574E-003	7	...........	-327.66
	159	0.32	-3.57748E-001	4.58834E-006	0.00000E+000	-3.56950E-001	1.44367E-003	7	...........	-327.66
	162	0.326	-3.27739E-001	4.48467E-006	0.00000E+000	-3.26950E-001	1.40402E-003	7	...........	-327.66
	165	0.332	-2.97680E-001	4.42668E-006	0.00000E+000	-2.96950E-001	1.45057E-003	7	...........	-327.66
	168	0.338	-2.67676E-001	4.39371E-006	0.00000E+000	-2.66950E-001	1.41609E-003	7	...........	-327.66
	171	0.344	-2.37714E-001	4.36660E-006	0.00000E+000	-2.36950E-001	1.42815E-003	7	...........	-327.66
	174	0.35	-2.07721E-001	4.34089E-006	0.00000E+000	-2.06950E-001	1.41436E-003	7	...........	-327.66
	177	0.356	-1.77727E-001	4.32156E-006	0.00000E+000	-1.76950E-001	1.39022E-003	7	...........	-327.66
	180	0.362	-1.47743E-001	4.30444E-006	0.00000E+000	-1.46950E-001	1.41264E-003	7	...........	-327.66
	183	0.368	-1.17729E-001	4.29277E-006	0.00000E+000	-1.16950E-001	1.48505E-003	7	...........	-327.66
	186	0.374	-8.77736E-002	4.28106E-006	0.00000E+000	-8.69500E-002	1.46609E-003	7	...........	-327.66
	189	0.38	-5.76873E-002	4.26762E-006	0.00000E+000	-5.69500E-002	1.45229E-003	7	...........	-327.66
	192	0.386	-2.77486E-002	4.25290E-006	0.00000E+000	-2.69500E-002	1.46609E-003	7	...........	-327.66
	195	0.392	2.24455E-003	4.23400E-006	0.00000E+000	3.04998E-003	1.47471E-003	7	...........	-327.66
	198	0.398	3.22808E-002	4.21117E-006	0.00000E+000	3.30500E-002	1.46436E-003	7	...........	-327.66
	201	0.404	6.23014E-002	4.18423E-006	0.00000E+000	6.30500E-002	1.46436E-003	7	...........	-327.66
	204	0.41	9.22971E-002	4.15320E-006	0.00000E+000	9.30500E-002	1.44712E-003	7	...........	-327.66
	207	0.416	1.22322E-001	4.11992E-006	0.00000E+000	1.23050E-001	1.45402E-003	7	...........	-327.66
	210	0.422	1.52285E-001	4.08524E-006	0.00000E+000	1.53050E-001	1.45229E-003	7	...........	-327.66
	213	0.428	1.82299E-001	4.05049E-006	0.00000E+000	1.83050E-001	1.40057E-003	7	...........	-327.66
	216	0.434	2.12256E-001	4.01692E-006	0.00000E+000	2.13050E-001	1.43850E-003	7	...........	-327.66
	219	0.44	2.42275E-001	3.98488E-006	0.00000E+000	2.43050E-001	1.42471E-003	7	...........	-327.66
	222	0.446	2.72227E-001	3.95331E-006	0.00000E+000	2.73050E-001	1.46091E-003	7	...........	-327.66
	225	0.452	3.02281E-001	3.92877E-006	0.00000E+000	3.03050E-001	1.51609E-003	7	...........	-327.66
	228	0.458	3.32258E-001	3.91044E-006	0.00000E+000	3.33050E-001	1.48505E-003	7	...........	-327.66
	231	0.464	3.62234E-001	3.89813E-006	0.00000E+000	3.63050E-001	1.48505E-003	7	...........	-327.66
	234	0.47	3.92218E-001	3.89563E-006	0.00000E+000	3.93050E-001	1.49367E-003	7	...........	-327.66
	237	0.476	4.22312E-001	3.90235E-006	0.00000E+000	4.23050E-001	1.49195E-003	7	...........	-327.66
	240	0.482	4.52207E-001	3.91789E-006	0.00000E+000	4.53050E-001	1.49195E-003	7	...........	-327.66
	243	0.488	4.82216E-001	3.94458E-006	0.00000E+000	4.83050E-001	1.41609E-003	7	...........	-327.66
	246	0.494	5.12186E-001	3.97855E-006	0.00000E+000	5.13050E-001	1.46436E-003	7	...........	-327.66
	249	0.5	5.42241E-001	4.02116E-006	0.00000E+000	5.43050E-001	1.43333E-003	7	...........	-327.66
	252	0.506	5.72176E-001	4.07605E-006	0.00000E+000	5.73050E-001	1.46091E-003	7	...........	-327.66
	255	0.512	6.02276E-001	4.14435E-006	0.00000E+000	6.03050E-001	1.44884E-003	7	...........	-327.66
CURVE2	TABLE
	Pt	T	Vf	Im	Vu	Sig	Ach	IERange	Over	Temp
	#	s	V vs. Ref.	A	V	V	V	#	bits	deg C
	256	0.514	5.91013E-001	2.58593E-006	0.00000E+000	5.90000E-001	1.44195E-003	7	...........	-327.66
	259	0.52	5.60778E-001	1.02451E-006	0.00000E+000	5.60000E-001	1.40229E-003	7	...........	-327.66
	262	0.526	5.30789E-001	5.34991E-008	0.00000E+000	5.30000E-001	1.49540E-003	7	...........	-327.66
	265	0.532	5.00839E-001	-6.60202E-007	0.00000E+000	5.00000E-001	1.49367E-003	7	...........	-327.66
	268	0.538	4.70771E-001	-1.21404E-006	0.00000E+000	4.70000E-001	1.50057E-003	7	...........	-327.66
	271	0.544	4.40758E-001	-1.65941E-006	0.00000E+000	4.40000E-001	1.49884E-003	7	...........	-327.66
	274	0.55	4.10782E-001	-2.02206E-006	0.00000E+000	4.10000E-001	1.43505E-003	7	...........	-327.66
	277	0.556	3.80800E-001	-2.32401E-006	0.00000E+000	3.80000E-001	1.43160E-003	7	...........	-327.66
	280	0.562	3.50820E-001	-2.58079E-006	0.00000E+000	3.50000E-001	1.42988E-003	7	...........	-327.66
	283	0.568	3.20807E-001	-2.80018E-006	0.00000E+000	3.20000E-001	1.47126E-003	7	...........	-327.66
	286	0.574	2.90815E-001	-2.99188E-006	0.00000E+000	2.90000E-001	1.45919E-003	7	...........	-327.66
	289	0.58	2.60766E-001	-3.16425E-006	0.00000E+000	2.60000E-001	1.50057E-003	7	...........	-327.66
	292	0.586	2.30806E-001	-3.31687E-006	0.00000E+000	2.30000E-001	1.49712E-003	7	...........	-327.66
	295	0.592	2.00815E-001	-3.45608E-006	0.00000E+000	2.00000E-001	1.48333E-003	7	...........	-327.66
	298	0.598	1.70870E-001	-3.58527E-006	0.00000E+000	1.70000E-001	1.41264E-003	7	...........	-327.66
	301	0.604	1.40894E-001	-3.70415E-006	0.00000E+000	1.40000E-001	1.41953E-003	7	...........	-327.66
	304	0.61	1.10832E-001	-3.81337E-006	0.00000E+000	1.10000E-001	1.49884E-003	7	...........	-327.66
	307	0.616	8.08066E-002	-3.91746E-006	0.00000E+000	8.00000E-002	1.40574E-003	7	...........	-327.66
	310	0.622	5.08273E-002	-4.01209E-006	0.00000E+000	5.00000E-002	1.41609E-003	7	...........	-327.66
	313	0.628	2.08325E-002	-4.10005E-006	0.00000E+000	2.00000E-002	1.47298E-003	7	...........	-327.66
	316	0.634	-9.13304E-003	-4.18204E-006	0.00000E+000	-1.00000E-002	1.42126E-003	7	...........	-327.66
	319	0.64	-3.91382E-002	-4.25659E-006	0.00000E+000	-4.00000E-002	1.44022E-003	7	...........	-327.66
	322	0.646	-6.91296E-002	-4.32629E-006	0.00000E+000	-7.00000E-002	1.40229E-003	7	...........	-327.66
	325	0.652	-9.91822E-002	-4.39156E-006	0.00000E+000	-1.00000E-001	1.50919E-003	7	...........	-327.66
	328	0.658	-1.29194E-001	-4.45011E-006	0.00000E+000	-1.30000E-001	1.48850E-003	7	...........	-327.66
	331	0.664	-1.59184E-001	-4.50490E-006	0.00000E+000	-1.60000E-001	1.48160E-003	7	...........	-327.66
	334	0.67	-1.89131E-001	-4.55213E-006	0.00000E+000	-1.90000E-001	1.40229E-003	7	...........	-327.66
	337	0.676	-2.19070E-001	-4.59265E-006	0.00000E+000	-2.20000E-001	1.49367E-003	7	...........	-327.66
	340	0.682	-2.49125E-001	-4.62660E-006	0.00000E+000	-2.50000E-001	1.40747E-003	7	...........	-327.66
	343	0.688	-2.79172E-001	-4.65031E-006	0.00000E+000	-2.80000E-001	1.41781E-003	7	...........	-327.66
	346	0.694	-3.09143E-001	-4.66708E-006	0.00000E+000	-3.10000E-001	1.41091E-003	7	...........	-327.66
	349	0.7	-3.39160E-001	-4.67675E-006	0.00000E+000	-3.40000E-001	1.46264E-003	7	...........	-327.66
	352	0.706	-3.69011E-001	-4.67697E-006	0.00000E+000	-3.70000E-001	1.47126E-003	7	...........	-327.66
	355	0.712	-3.99130E-001	-4.67508E-006	0.00000E+000	-4.00000E-001	1.43850E-003	7	...........	-327.66
	358	0.718	-4.29114E-001	-4.66951E-006	0.00000E+000	-4.30000E-001	1.42126E-003	7	...........	-327.66
	361	0.724	-4.59149E-001	-4.66197E-006	0.00000E+000	-4.60000E-001	1.44712E-003	7	...........	-327.66
	364	0.73	-4.89105E-001	-4.65463E-006	0.00000E+000	-4.90000E-001	1.42643E-003	7	...........	-327.66
	367	0.736	-5.19178E-001	-4.64680E-006	0.00000E+000	-5.20000E-001	1.45057E-003	7	...........	-327.66
	370	0.742	-5.49057E-001	-4.63424E-006	0.00000E+000	-5.50000E-001	1.50057E-003	7	...........	-327.66
	373	0.748	-5.79083E-001	-4.60270E-006	0.00000E+000	-5.80000E-001	1.42988E-003	7	...........	-327.66
	376	0.754	-6.09127E-001	-4.53463E-006	0.00000E+000	-6.10000E-001	1.48333E-003	7	...........	-327.66
	379	0.76	-6.39116E-001	-4.39754E-006	0.00000E+000	-6.40000E-001	1.40574E-003	7	...........	-327.66
	382	0.766	-6.69054E-001	-4.15930E-006	0.00000E+000	-6.70000E-001	1.52471E-003	7	...........	-327.66
	385	0.772	-6.99107E-001	-3.79753E-006	0.00000E+000	-7.00000E-001	1.47298E-003	7	...........	-327.66
	388	0.778	-7.29066E-001	-3.32139E-006	0.00000E+000	-7.30000E-001	1.43850E-003	7	...........	-327.66
	391	0.784	-7.59114E-001	-2.77701E-006	0.00000E+000	-7.60000E-001	1.44367E-003	7	...........	-327.66
	394	0.79	-7.89095E-001	-2.24580E-006	0.00000E+000	-7.90000E-001	1.46781E-003	7	...........	-327.66
	397	0.796	-8.19141E-001	-1.79349E-006	0.00000E+000	-8.20000E-001	1.40574E-003	7	...........	-327.66
	400	0.802	-8.49124E-001	-1.45000E-006	0.00000E+000	-8.50000E-001	1.50919E-003	7	...........	-327.66
	403	0.808	-8.79137E-001	-1.20495E-006	0.00000E+000	-8.80000E-001	1.45057E-003	7	...........	-327.66
	406	0.814	-8.90687E-001	-9.50621E-007	0.00000E+000	-8.90000E-001	1.42988E-003	7	...........	-327.66
	409	0.82	-8.60643E-001	-7.24228E-007	0.00000E+000	-8.60000E-001	1.42471E-003	7	...........	-327.66
	412	0.826	-8.30581E-001	-5.76052E-007	0.00000E+000	-8.30000E-001	1.46781E-003	7	...........	-327.66
	415	0.832	-8.00671E-001	-4.46569E-007	0.00000E+000	-8.00000E-001	1.52643E-003	7	...........	-327.66
	418	0.838	-7.70672E-001	-3.04550E-007	0.00000E+000	-7.70000E-001	1.44367E-003	7	...........	-327.66
	421	0.844	-7.40724E-001	-1.29733E-007	0.00000E+000	-7.40000E-001	1.44540E-003	7	...........	-327.66
	424	0.85	-7.10683E-001	1.03540E-007	0.00000E+000	-7.10000E-001	1.49022E-003	7	...........	-327.66
	427	0.856	-6.80642E-001	4.27205E-007	0.00000E+000	-6.80000E-001	1.44195E-003	7	...........	-327.66
	430	0.862	-6.50719E-001	8.75715E-007	0.00000E+000	-6.50000E-001	1.42298E-003	7	...........	-327.66
	433	0.868	-6.20749E-001	1.48421E-006	0.00000E+000	-6.20000E-001	1.42298E-003	7	...........	-327.66
	436	0.874	-5.90769E-001	2.27458E-006	0.00000E+000	-5.90000E-001	1.47298E-003	7	...........	-327.66
	439	0.88	-5.60780E-001	3.21503E-006	0.00000E+000	-5.60000E-001	1.48333E-003	7	...........	-327.66
[...]
	736	1.474	-5.90746E-001	2.32548E-006	0.00000E+000	-5.90000E-001	1.38160E-003	7	...........	-327.66
	739	1.48	-5.60740E-001	3.27473E-006	0.00000E+000	-5.60000E-001	1.42815E-003	7	...........	-327.66
	742	1.486	-5.30772E-001	4.25352E-006	0.00000E+000	-5.30000E-001	1.46609E-003	7	...........	-327.66
	745	1.492	-5.00712E-001	4.98640E-006	0.00000E+000	-5.00000E-001	1.44540E-003	7	...........	-327.66
	748	1.498	-4.70717E-001	5.22144E-006	0.00000E+000	-4.70000E-001	1.43678E-003	7	...........	-327.66
	751	1.504	-4.40755E-001	5.06487E-006	0.00000E+000	-4.40000E-001	1.45574E-003	7	...........	-327.66
	754	1.51	-4.10782E-001	4.79345E-006	0.00000E+000	-4.10000E-001	1.39540E-003	7	...........	-327.66
	757	1.516	-3.80785E-001	4.56815E-006	0.00000E+000	-3.80000E-001	1.45229E-003	7	...........	-327.66
	760	1.522	-3.50776E-001	4.42741E-006	0.00000E+000	-3.50000E-001	1.49712E-003	7	...........	-327.66
	763	1.528	-3.20781E-001	4.35133E-006	0.00000E+000	-3.20000E-001	1.42815E-003	7	...........	-327.66
	766	1.534	-2.90754E-001	4.30439E-006	0.00000E+000	-2.90000E-001	1.51609E-003	7	...........	-327.66
	769	1.54	-2.60785E-001	4.27356E-006	0.00000E+000	-2.60000E-001	1.39540E-003	7	...........	-327.66
	772	1.546	-2.30768E-001	4.25361E-006	0.00000E+000	-2.30000E-001	1.48505E-003	7	...........	-327.66
	775	1.552	-2.00808E-001	4.23672E-006	0.00000E+000	-2.00000E-001	1.54022E-003	7	...........	-327.66
	778	1.558	-1.70820E-001	4.22653E-006	0.00000E+000	-1.70000E-001	1.43505E-003	7	...........	-327.66
	781	1.564	-1.40775E-001	4.21746E-006	0.00000E+000	-1.40000E-001	1.49884E-003	7	...........	-327.66
	784	1.57	-1.10810E-001	4.21070E-006	0.00000E+000	-1.10000E-001	1.42643E-003	7	...........	-327.66
	787	1.576	-8.07899E-002	4.20470E-006	0.00000E+000	-8.00000E-002	1.44884E-003	7	...........	-327.66
	790	1.582	-5.08115E-002	4.19775E-006	0.00000E+000	-5.00000E-002	1.45229E-003	7	...........	-327.66
	793	1.588	-2.07865E-002	4.18710E-006	0.00000E+000	-2.00000E-002	1.46091E-003	7	...........	-327.66
	796	1.594	9.21696E-003	4.17408E-006	0.00000E+000	9.99999E-003	1.47298E-003	7	...........	-327.66
	799	1.6	3.91411E-002	4.15597E-006	0.00000E+000	4.00000E-002	1.44884E-003	7	...........	-327.66
	802	1.606	6.92256E-002	4.13431E-006	0.00000E+000	7.00000E-002	1.45747E-003	7	...........	-327.66
	805	1.612	9.92144E-002	4.10990E-006	0.00000E+000	1.00000E-001	1.52988E-003	7	...........	-327.66
	808	1.618	1.29252E-001	4.08208E-006	0.00000E+000	1.30000E-001	1.49540E-003	7	...........	-327.66
	811	1.624	1.59201E-001	4.05308E-006	0.00000E+000	1.60000E-001	1.43678E-003	7	...........	-327.66
	814	1.63	1.89218E-001	4.02378E-006	0.00000E+000	1.90000E-001	1.42643E-003	7	...........	-327.66
	817	1.636	2.19198E-001	3.99652E-006	0.00000E+000	2.20000E-001	1.43678E-003	7	...........	-327.66
	820	1.642	2.49226E-001	3.97053E-006	0.00000E+000	2.50000E-001	1.46609E-003	7	...........	-327.66
	823	1.648	2.79188E-001	3.94651E-006	0.00000E+000	2.80000E-001	1.41264E-003	7	...........	-327.66
	826	1.654	3.09191E-001	3.92848E-006	0.00000E+000	3.10000E-001	1.49022E-003	7	...........	-327.66
	829	1.66	3.39191E-001	3.91608E-006	0.00000E+000	3.40000E-001	1.48160E-003	7	...........	-327.66
	832	1.666	3.69195E-001	3.91146E-006	0.00000E+000	3.70000E-001	1.39022E-003	7	...........	-327.66
	835	1.672	3.99195E-001	3.91518E-006	0.00000E+000	4.00000E-001	1.46091E-003	7	...........	-327.66
	838	1.678	4.29174E-001	3.92734E-006	0.00000E+000	4.30000E-001	1.41609E-003	7	...........	-327.66
	841	1.684	4.59177E-001	3.94906E-006	0.00000E+000	4.60000E-001	1.47298E-003	7	...........	-327.66
	844	1.69	4.89178E-001	3.98212E-006	0.00000E+000	4.90000E-001	1.44195E-003	7	...........	-327.66
	847	1.696	5.19175E-001	4.02568E-006	0.00000E+000	5.20000E-001	1.37815E-003	7	...........	-327.66
	850	1.702	5.49183E-001	4.08019E-006	0.00000E+000	5.50000E-001	1.49022E-003	7	...........	-327.66
	853	1.708	5.79189E-001	4.14573E-006	0.00000E+000	5.80000E-001	1.42988E-003	7	...........	-327.66
	855	1.712	5.99172E-001	4.19370E-006	0.00000E+000	6.00000E-001	1.47815E-003	7	...........	-327.66
CURVE4	TABLE
	Pt	T	Vf	Im	Vu	Sig	Ach	IERange	Over	Temp
	#	s	V vs. Ref.	A	V	V	V	#	bits	deg C
	856	1.714	5.90766E-001	2.80860E-006	0.00000E+000	5.90000E-001	1.41436E-003	7	...........	-327.66
	857	1.716	5.80760E-001	2.04572E-006	0.00000E+000	5.80000E-001	1.53678E-003	7	...........	-327.66
	858	1.718	5.70764E-001	1.48868E-006	0.00000E+000	5.70000E-001	1.50057E-003	7	...........	-327.66
	859	1.72	5.60764E-001	1.03393E-006	0.00000E+000	5.60000E-001	1.47471E-003	7	...........	-327.66
	860	1.722	5.50769E-001	6.45545E-007	0.00000E+000	5.50000E-001	1.40057E-003	7	...........	-327.66
	861	1.724	5.40763E-001	3.06344E-007	0.00000E+000	5.40000E-001	1.45057E-003	7	...........	-327.66
	862	1.726	5.30788E-001	3.50950E-009	0.00000E+000	5.30000E-001	1.39195E-003	7	...........	-327.66
	863	1.728	5.20770E-001	-2.67665E-007	0.00000E+000	5.20000E-001	1.40057E-003	7	...........	-327.66
	864	1.73	5.10770E-001	-5.14302E-007	0.00000E+000	5.10000E-001	1.47815E-003	7	...........	-327.66
	865	1.732	5.00830E-001	-7.37747E-007	0.00000E+000	5.00000E-001	1.41609E-003	7	...........	-327.66
	866	1.734	4.90782E-001	-9.43154E-007	0.00000E+000	4.90000E-001	1.39884E-003	7	...........	-327.66
	867	1.736	4.80757E-001	-1.13252E-006	0.00000E+000	4.80000E-001	1.42815E-003	7	...........	-327.66
	868	1.738	4.70772E-001	-1.30522E-006	0.00000E+000	4.70000E-001	1.36436E-003	7	...........	-327.66
	869	1.74	4.60772E-001	-1.46640E-006	0.00000E+000	4.60000E-001	1.47643E-003	7	...........	-327.66
	870	1.742	4.50837E-001	-1.61650E-006	0.00000E+000	4.50000E-001	1.48333E-003	7	...........	-327.66
	871	1.744	4.40757E-001	-1.75652E-006	0.00000E+000	4.40000E-001	1.51436E-003	7	...........	-327.66
	872	1.746	4.30777E-001	-1.88539E-006	0.00000E+000	4.30000E-001	1.38678E-003	7	...........	-327.66
	873	1.748	4.20810E-001	-2.00704E-006	0.00000E+000	4.20000E-001	1.45574E-003	7	...........	-327.66
	874	1.75	4.10787E-001	-2.12059E-006	0.00000E+000	4.10000E-001	1.41091E-003	7	...........	-327.66
	875	1.752	4.00787E-001	-2.22762E-006	0.00000E+000	4.00000E-001	1.45402E-003	7	...........	-327.66
	876	1.754	3.90796E-001	-2.32858E-006	0.00000E+000	3.90000E-001	1.45574E-003	7	...........	-327.66
	877	1.756	3.80811E-001	-2.42170E-006	0.00000E+000	3.80000E-001	1.45747E-003	7	...........	-327.66
	878	1.758	3.70801E-001	-2.51002E-006	0.00000E+000	3.70000E-001	1.43850E-003	7	...........	-327.66
	879	1.76	3.60773E-001	-2.59479E-006	0.00000E+000	3.60000E-001	1.42298E-003	7	...........	-327.66
	880	1.762	3.50825E-001	-2.67453E-006	0.00000E+000	3.50000E-001	1.38850E-003	7	...........	-327.66
	881	1.764	3.40814E-001	-2.74916E-006	0.00000E+000	3.40000E-001	1.44022E-003	7	...........	-327.66
	882	1.766	3.30813E-001	-2.82113E-006	0.00000E+000	3.30000E-001	1.45919E-003	7	...........	-327.66
	883	1.768	3.20806E-001	-2.88973E-006	0.00000E+000	3.20000E-001	1.46781E-003	7	...........	-327.66
	884	1.77	3.10776E-001	-2.95403E-006	0.00000E+000	3.10000E-001	1.44540E-003	7	...........	-327.66
	885	1.772	3.00803E-001	-3.01623E-006	0.00000E+000	3.00000E-001	1.45574E-003	7	...........	-327.66
	886	1.774	2.90787E-001	-3.07457E-006	0.00000E+000	2.90000E-001	1.46953E-003	7	...........	-327.66
	887	1.776	2.80795E-001	-3.13250E-006	0.00000E+000	2.80000E-001	1.50747E-003	7	...........	-327.66
	888	1.778	2.70836E-001	-3.18708E-006	0.00000E+000	2.70000E-001	1.44884E-003	7	...........	-327.66
	889	1.78	2.60782E-001	-3.23979E-006	0.00000E+000	2.60000E-001	1.40919E-003	7	...........	-327.66
	890	1.782	2.50829E-001	-3.28868E-006	0.00000E+000	2.50000E-001	1.47815E-003	7	...........	-327.66
	891	1.784	2.40801E-001	-3.33808E-006	0.00000E+000	2.40000E-001	1.46953E-003	7	...........	-327.66
	892	1.786	2.30802E-001	-3.38571E-006	0.00000E+000	2.30000E-001	1.47643E-003	7	...........	-327.66
	893	1.788	2.20840E-001	-3.43089E-006	0.00000E+000	2.20000E-001	1.47298E-003	7	...........	-327.66
	894	1.79	2.10796E-001	-3.47577E-006	0.00000E+000	2.10000E-001	1.44712E-003	7	...........	-327.66
	895	1.792	2.00798E-001	-3.51783E-006	0.00000E+000	2.00000E-001	1.41609E-003	7	...........	-327.66
	896	1.794	1.90842E-001	-3.55863E-006	0.00000E+000	1.90000E-001	1.43333E-003	7	...........	-327.66
	897	1.796	1.80806E-001	-3.59991E-006	0.00000E+000	1.80000E-001	1.41264E-003	7	...........	-327.66
	898	1.798	1.70858E-001	-3.63849E-006	0.00000E+000	1.70000E-001	1.44884E-003	7	...........	-327.66
	899	1.8	1.60820E-001	-3.67679E-006	0.00000E+000	1.60000E-001	1.45057E-003	7	...........	-327.66
	900	1.802	1.50838E-001	-3.71315E-006	0.00000E+000	1.50000E-001	1.44540E-003	7	...........	-327.66