File: Test_Data_Files/20250509_T_IF0011_IIA42_E05_PBSair_PEDOT_CV50000.DTA
EXPLAIN
TAG	CV
TITLE	LABEL	CV50000	Test Identifier
DATE	LABEL	5/9/2025	Date
TIME	LABEL	15:09:18	Time
NOTES	NOTES	1	Notes...

PSTAT	PSTAT	REF600P-43058	Potentiostat
VINIT	POTEN	0.00000E+000	T	Initial E (V)
VLIMIT1	POTEN	-9.00000E-001	F	Scan Limit 1 (V)
VLIMIT2	POTEN	6.00000E-001	F	Scan Limit 2 (V)
VFINAL	POTEN	0.00000E+000	T	Final E (V)
SCANRATE	QUANT	4.99999E+004	Scan Rate (mV/s)
STEPSIZE	QUANT	1.00000E+001	Step Size (mV)
CYCLES	IQUANT	3	Cycles (#)
IMODE	SELECTOR	1	I/E Range Mode
IRANGE	QUANT	1.00000E-002	Max Current (mA)
AREA	QUANT	1.00000E+000	Sample Area (cm^2)
EQDELAY	QUANT	5.00000E+000	Equil. Time (s)
IRCOMP	SELECTOR	0	IRComp
PFCOR	QUANT	5.00000E+001	PF Corr. (ohm)
SAMPLINGMODE	SELECTOR	2	Sampling Mode
EOC	QUANT	0.1578694	Open Circuit (V)
ELECTRODETYPE	SELECTOR	0	Electrode Type
STRIPPING	TOGGLE	F	Used for Stripping
SEQUENCER	TOGGLE	TRUE	Run as Sequence
PSTATMODEL	IQUANT	7	Pstat Model
PSTATSECTION	LABEL	REF600P-43058	Pstat Section
PSTATSERIALNO	LABEL	43058	Pstat Serial Number
CTRLMODE	IQUANT	1	Control Mode
ELECTROMETER	IQUANT	0	RE=0 or CS=1
IESTAB	IQUANT	2	I/E Stability
CASPEED	IQUANT	4	Control Amp Speed
CONVENTION	IQUANT	1	Current Convention
ICHRANGE	IQUANT	2	Ich Range
ICHRANGEMODE	TOGGLE	F	Ich Auto Range
ICHOFFSETENABLE	TOGGLE	F	Ich Offset Enable
ICHOFFSET	QUANT	0	Ich Offset (V)
ICHFILTER	IQUANT	1	Ich Filter
VCHRANGE	IQUANT	2	Vch Range
VCHRANGEMODE	TOGGLE	F	Vch Auto Range
VCHOFFSETENABLE	TOGGLE	F	Vch Offset Enable
VCHOFFSET	QUANT	0	Vch Offset (V)
VCHFILTER	IQUANT	1	Vch Filter
ACHRANGE	IQUANT	2	Ach Range
ACHOFFSETENABLE	TOGGLE	F	Ach Offset Enable
ACHOFFSET	QUANT	0	Ach Offset (V)
ACHFILTER	IQUANT	1	Ach Filter
IERANGELOWERLIMIT	IQUANT	1	I/E Range Lower Limit
IERANGEMODE	TOGGLE	F	I/E AutoRange
IERANGE	IQUANT	7	I/E Range
POSFEEDENABLE	TOGGLE	F	Positive Feedback IR Comp
POSFEEDRESISTANCE	QUANT	0	Positive Feedback Resistance (ohm)
ACHSELECT	IQUANT	4	Ach Select
SENSECABLEID	IQUANT	7	Sense Cable ID
PWRCABLEID	IQUANT	7	Power Cable ID
DCCALDATE	LABEL	5/8/2025	DC Calibration Date
ACCALDATE	LABEL	5/8/2025	AC Calibration Date
THERMOSELECT	IQUANT	1	Thermo Select
FRAMEWORKVERSION	LABEL	7.10.4	Framework Version
INSTRUMENTVERSION	LABEL	5.01	Instrument Version
COMMVERSION	LABEL	5.10	Communications Version
CPUPLDVERSION	LABEL	6.00	CPU PLD Version
CTRLPLDVERSION	LABEL	3.21	CTRL PLD Version
PSTATPLDVERSION	LABEL	0.00	PSTAT PLD Version
CURVE1	TABLE
	Pt	T	Vf	Im	Vu	Sig	Ach	IERange	Over	Temp
	#	s	V vs. Ref.	A	V	V	V	#	bits	deg C
	0	0.0002	1.57912E-001	1.24056E-008	0.00000E+000	1.57850E-001	1.06522E-003	7	...........	-327.66
	3	0.0008	1.27912E-001	-3.52683E-006	0.00000E+000	1.27850E-001	1.16522E-003	7	...........	-327.66
	6	0.0014	9.79873E-002	-5.90515E-006	0.00000E+000	9.78500E-002	1.14022E-003	7	...........	-327.66
	9	0.002	6.79373E-002	-7.76965E-006	0.00000E+000	6.78500E-002	1.09022E-003	7	...........	-327.66
	12	0.0026	3.79748E-002	-9.36487E-006	0.00000E+000	3.78500E-002	1.06522E-003	7	...........	-327.66
	15	0.0032	8.01231E-003	-1.08078E-005	0.00000E+000	7.84999E-003	1.24022E-003	7	...........	-327.66
	18	0.0038	-2.20377E-002	-1.21450E-005	0.00000E+000	-2.21500E-002	1.04022E-003	7	...........	-327.66
	21	0.0044	-5.20002E-002	-1.34209E-005	0.00000E+000	-5.21500E-002	1.01522E-003	7	...........	-327.66
	24	0.005	-8.19877E-002	-1.46461E-005	0.00000E+000	-8.21500E-002	1.14022E-003	7	...........	-327.66
	27	0.0056	-1.12013E-001	-1.58308E-005	0.00000E+000	-1.12150E-001	1.04022E-003	7	...........	-327.66
	30	0.0062	-1.42025E-001	-1.70024E-005	0.00000E+000	-1.42150E-001	1.06522E-003	7	...........	-327.66
	33	0.0068	-1.71963E-001	-1.81393E-005	0.00000E+000	-1.72150E-001	1.06522E-003	7	...........	-327.66
	36	0.0074	-2.01988E-001	-1.92775E-005	0.00000E+000	-2.02150E-001	1.21522E-003	7	...........	-327.66
	39	0.008	-2.31988E-001	-2.03989E-005	0.00000E+000	-2.32150E-001	1.14022E-003	7	...........	-327.66
	42	0.0086	-2.61900E-001	-2.15055E-005	0.00000E+000	-2.62150E-001	1.19022E-003	7	...........	-327.66
	45	0.0092	-2.91975E-001	-2.26042E-005	0.00000E+000	-2.92150E-001	1.11522E-003	7	...........	-327.66
	48	0.0098	-3.21900E-001	-2.36856E-005	0.00000E+000	-3.22150E-001	1.21522E-003	7	...........	-327.66
	51	0.0104	-3.52000E-001	-2.47600E-005	0.00000E+000	-3.52150E-001	1.16522E-003	7	...........	-327.66
	54	0.011	-3.81925E-001	-2.58156E-005	0.00000E+000	-3.82150E-001	1.09022E-003	7	...........	-327.66
	57	0.0116	-4.11988E-001	-2.68548E-005	0.00000E+000	-4.12150E-001	1.09022E-003	7	...........	-327.66
	60	0.0122	-4.41775E-001	-2.78809E-005	0.00000E+000	-4.42150E-001	1.29022E-003	7	...........	-327.66
	63	0.0128	-4.71925E-001	-2.88913E-005	0.00000E+000	-4.72150E-001	1.16522E-003	7	...........	-327.66
	66	0.0134	-5.01875E-001	-2.98804E-005	0.00000E+000	-5.02150E-001	1.19022E-003	7	...........	-327.66
	69	0.014	-5.31988E-001	-3.08443E-005	0.00000E+000	-5.32150E-001	1.06522E-003	7	...........	-327.66
	72	0.0146	-5.61913E-001	-3.17789E-005	0.00000E+000	-5.62150E-001	1.04022E-003	7	...........	-327.66
	75	0.0152	-5.91813E-001	-3.26850E-005	0.00000E+000	-5.92150E-001	1.14022E-003	7	...........	-327.66
	78	0.0158	-6.21700E-001	-3.35642E-005	0.00000E+000	-6.22150E-001	9.90224E-004	7	...........	-327.66
	81	0.0164	-6.51788E-001	-3.43973E-005	0.00000E+000	-6.52150E-001	1.14022E-003	7	...........	-327.66
	84	0.017	-6.81713E-001	-3.51879E-005	0.00000E+000	-6.82150E-001	1.14022E-003	7	...........	-327.66
	87	0.0176	-7.11738E-001	-3.59250E-005	0.00000E+000	-7.12150E-001	1.19022E-003	7	...........	-327.66
	90	0.0182	-7.41775E-001	-3.65991E-005	0.00000E+000	-7.42150E-001	1.01522E-003	7	...........	-327.66
	93	0.0188	-7.71838E-001	-3.72042E-005	0.00000E+000	-7.72150E-001	1.09022E-003	7	...........	-327.66
	96	0.0194	-8.01775E-001	-3.77160E-005	0.00000E+000	-8.02150E-001	1.21522E-003	7	...........	-327.66
	99	0.02	-8.31888E-001	-3.81148E-005	0.00000E+000	-8.32150E-001	1.21522E-003	7	...........	-327.66
	102	0.0206	-8.61738E-001	-3.83753E-005	0.00000E+000	-8.62150E-001	1.21522E-003	7	...........	-327.66
	105	0.0212	-8.91875E-001	-3.84651E-005	0.00000E+000	-8.92150E-001	1.14022E-003	7	...........	-327.66
	108	0.0218	-8.81688E-001	-3.37039E-005	0.00000E+000	-8.82150E-001	1.16522E-003	7	...........	-327.66
	111	0.0224	-8.51863E-001	-2.80347E-005	0.00000E+000	-8.52150E-001	1.01522E-003	7	...........	-327.66
	114	0.023	-8.21775E-001	-2.34400E-005	0.00000E+000	-8.22150E-001	1.21522E-003	7	...........	-327.66
	117	0.0236	-7.91900E-001	-1.94085E-005	0.00000E+000	-7.92150E-001	1.14022E-003	7	...........	-327.66
	120	0.0242	-7.61950E-001	-1.57612E-005	0.00000E+000	-7.62150E-001	1.14022E-003	7	...........	-327.66
	123	0.0248	-7.31850E-001	-1.24145E-005	0.00000E+000	-7.32150E-001	1.24022E-003	7	...........	-327.66
	126	0.0254	-7.01713E-001	-9.31612E-006	0.00000E+000	-7.02150E-001	1.06522E-003	7	...........	-327.66
	129	0.026	-6.71950E-001	-6.44197E-006	0.00000E+000	-6.72150E-001	1.21522E-003	7	...........	-327.66
	132	0.0266	-6.41875E-001	-3.75361E-006	0.00000E+000	-6.42150E-001	1.21522E-003	7	...........	-327.66
	135	0.0272	-6.11975E-001	-1.23601E-006	0.00000E+000	-6.12150E-001	1.21522E-003	7	...........	-327.66
	138	0.0278	-5.81975E-001	1.13431E-006	0.00000E+000	-5.82150E-001	1.16522E-003	7	...........	-327.66
	141	0.0284	-5.52025E-001	3.38537E-006	0.00000E+000	-5.52150E-001	1.16522E-003	7	...........	-327.66
	144	0.029	-5.22000E-001	5.53466E-006	0.00000E+000	-5.22150E-001	1.14022E-003	7	...........	-327.66
	147	0.0296	-4.92063E-001	7.60469E-006	0.00000E+000	-4.92150E-001	1.19022E-003	7	...........	-327.66
	150	0.0302	-4.62188E-001	9.60496E-006	0.00000E+000	-4.62150E-001	1.09022E-003	7	...........	-327.66
	153	0.0308	-4.32113E-001	1.15517E-005	0.00000E+000	-4.32150E-001	1.11522E-003	7	...........	-327.66
	156	0.0314	-4.02138E-001	1.34365E-005	0.00000E+000	-4.02150E-001	9.90224E-004	7	...........	-327.66
	159	0.032	-3.72025E-001	1.52572E-005	0.00000E+000	-3.72150E-001	1.06522E-003	7	...........	-327.66
	162	0.0326	-3.42225E-001	1.70080E-005	0.00000E+000	-3.42150E-001	9.90224E-004	7	...........	-327.66
	165	0.0332	-3.12063E-001	1.86757E-005	0.00000E+000	-3.12150E-001	1.19022E-003	7	...........	-327.66
	168	0.0338	-2.82138E-001	2.02407E-005	0.00000E+000	-2.82150E-001	1.19022E-003	7	...........	-327.66
	171	0.0344	-2.52088E-001	2.17079E-005	0.00000E+000	-2.52150E-001	9.15224E-004	7	...........	-327.66
	174	0.035	-2.22113E-001	2.30565E-005	0.00000E+000	-2.22150E-001	1.04022E-003	7	...........	-327.66
	177	0.0356	-1.92138E-001	2.42880E-005	0.00000E+000	-1.92150E-001	9.90224E-004	7	...........	-327.66
	180	0.0362	-1.62275E-001	2.53966E-005	0.00000E+000	-1.62150E-001	1.09022E-003	7	...........	-327.66
	183	0.0368	-1.32125E-001	2.63930E-005	0.00000E+000	-1.32150E-001	1.06522E-003	7	...........	-327.66
	186	0.0374	-1.02238E-001	2.72681E-005	0.00000E+000	-1.02150E-001	1.01522E-003	7	...........	-327.66
	189	0.038	-7.22002E-002	2.80440E-005	0.00000E+000	-7.21500E-002	1.19022E-003	7	...........	-327.66
	192	0.0386	-4.21377E-002	2.87218E-005	0.00000E+000	-4.21500E-002	1.14022E-003	7	...........	-327.66
	195	0.0392	-1.22127E-002	2.92991E-005	0.00000E+000	-1.21500E-002	9.90224E-004	7	...........	-327.66
	198	0.0398	1.79373E-002	2.97995E-005	0.00000E+000	1.78500E-002	1.14022E-003	7	...........	-327.66
	201	0.0404	4.79123E-002	3.02158E-005	0.00000E+000	4.78500E-002	1.14022E-003	7	...........	-327.66
	204	0.041	7.78123E-002	3.05616E-005	0.00000E+000	7.78500E-002	1.06522E-003	7	...........	-327.66
	207	0.0416	1.07912E-001	3.08406E-005	0.00000E+000	1.07850E-001	9.90224E-004	7	...........	-327.66
	210	0.0422	1.37837E-001	3.10604E-005	0.00000E+000	1.37850E-001	1.14022E-003	7	...........	-327.66
	213	0.0428	1.67800E-001	3.12107E-005	0.00000E+000	1.67850E-001	1.29022E-003	7	...........	-327.66
	216	0.0434	1.97862E-001	3.13087E-005	0.00000E+000	1.97850E-001	9.90224E-004	7	...........	-327.66
	219	0.044	2.27875E-001	3.13452E-005	0.00000E+000	2.27850E-001	1.16522E-003	7	...........	-327.66
	222	0.0446	2.57800E-001	3.13239E-005	0.00000E+000	2.57850E-001	1.19022E-003	7	...........	-327.66
	225	0.0452	2.87837E-001	3.12454E-005	0.00000E+000	2.87850E-001	1.29022E-003	7	...........	-327.66
	228	0.0458	3.17900E-001	3.11261E-005	0.00000E+000	3.17850E-001	1.09022E-003	7	...........	-327.66
	231	0.0464	3.47950E-001	3.09679E-005	0.00000E+000	3.47850E-001	1.14022E-003	7	...........	-327.66
	234	0.047	3.77875E-001	3.07798E-005	0.00000E+000	3.77850E-001	1.19022E-003	7	...........	-327.66
	237	0.0476	4.07800E-001	3.05663E-005	0.00000E+000	4.07850E-001	1.24022E-003	7	...........	-327.66
	240	0.0482	4.37762E-001	3.03455E-005	0.00000E+000	4.37850E-001	1.29022E-003	7	...........	-327.66
	243	0.0488	4.67850E-001	3.01208E-005	0.00000E+000	4.67850E-001	1.19022E-003	7	...........	-327.66
	246	0.0494	4.97850E-001	2.99117E-005	0.00000E+000	4.97850E-001	1.14022E-003	7	...........	-327.66
	249	0.05	5.27762E-001	2.97212E-005	0.00000E+000	5.27850E-001	1.04022E-003	7	...........	-327.66
	252	0.0506	5.57762E-001	2.95624E-005	0.00000E+000	5.57850E-001	1.19022E-003	7	...........	-327.66
	255	0.0512	5.87837E-001	2.94399E-005	0.00000E+000	5.87850E-001	1.29022E-003	7	...........	-327.66
	256	0.0514	5.97775E-001	2.94074E-005	0.00000E+000	5.97850E-001	1.14022E-003	7	...........	-327.66
CURVE2	TABLE
	Pt	T	Vf	Im	Vu	Sig	Ach	IERange	Over	Temp
	#	s	V vs. Ref.	A	V	V	V	#	bits	deg C
	257	0.0516	5.89950E-001	2.70186E-005	0.00000E+000	5.90000E-001	1.19022E-003	7	...........	-327.66
	261	0.0524	5.50075E-001	1.89915E-005	0.00000E+000	5.50000E-001	1.14022E-003	7	...........	-327.66
	265	0.0532	5.09975E-001	1.38583E-005	0.00000E+000	5.10000E-001	1.19022E-003	7	...........	-327.66
	269	0.054	4.70025E-001	9.89325E-006	0.00000E+000	4.70000E-001	1.09022E-003	7	...........	-327.66
	273	0.0548	4.30037E-001	6.58180E-006	0.00000E+000	4.30000E-001	1.24022E-003	7	...........	-327.66
	277	0.0556	3.89987E-001	3.71291E-006	0.00000E+000	3.90000E-001	1.09022E-003	7	...........	-327.66
	281	0.0564	3.50062E-001	1.16306E-006	0.00000E+000	3.50000E-001	1.16522E-003	7	...........	-327.66
	285	0.0572	3.10162E-001	-1.14950E-006	0.00000E+000	3.10000E-001	1.14022E-003	7	...........	-327.66
	289	0.058	2.70125E-001	-3.27854E-006	0.00000E+000	2.70000E-001	1.11522E-003	7	...........	-327.66
	293	0.0588	2.30162E-001	-5.25981E-006	0.00000E+000	2.30000E-001	1.09022E-003	7	...........	-327.66
	297	0.0596	1.90137E-001	-7.12132E-006	0.00000E+000	1.90000E-001	1.09022E-003	7	...........	-327.66
	301	0.0604	1.50225E-001	-8.88956E-006	0.00000E+000	1.50000E-001	1.21522E-003	7	...........	-327.66
	305	0.0612	1.10187E-001	-1.05838E-005	0.00000E+000	1.10000E-001	1.11522E-003	7	...........	-327.66
	309	0.062	7.02623E-002	-1.22163E-005	0.00000E+000	7.00000E-002	1.09022E-003	7	...........	-327.66
	313	0.0628	3.01873E-002	-1.37967E-005	0.00000E+000	3.00000E-002	1.11522E-003	7	...........	-327.66
	317	0.0636	-9.81269E-003	-1.53399E-005	0.00000E+000	-1.00000E-002	1.11522E-003	7	...........	-327.66
	321	0.0644	-4.97502E-002	-1.68469E-005	0.00000E+000	-5.00000E-002	1.24022E-003	7	...........	-327.66
	325	0.0652	-8.97752E-002	-1.83266E-005	0.00000E+000	-9.00000E-002	1.06522E-003	7	...........	-327.66
	329	0.066	-1.29813E-001	-1.97770E-005	0.00000E+000	-1.30000E-001	1.11522E-003	7	...........	-327.66
	333	0.0668	-1.69788E-001	-2.12082E-005	0.00000E+000	-1.70000E-001	1.06522E-003	7	...........	-327.66
	337	0.0676	-2.09700E-001	-2.26137E-005	0.00000E+000	-2.10000E-001	1.14022E-003	7	...........	-327.66
	341	0.0684	-2.49750E-001	-2.39986E-005	0.00000E+000	-2.50000E-001	1.11522E-003	7	...........	-327.66
	345	0.0692	-2.89750E-001	-2.53491E-005	0.00000E+000	-2.90000E-001	1.04022E-003	7	...........	-327.66
	349	0.07	-3.29763E-001	-2.66667E-005	0.00000E+000	-3.30000E-001	1.09022E-003	7	...........	-327.66
	353	0.0708	-3.69775E-001	-2.79507E-005	0.00000E+000	-3.70000E-001	9.90224E-004	7	...........	-327.66
	357	0.0716	-4.09713E-001	-2.91883E-005	0.00000E+000	-4.10000E-001	1.06522E-003	7	...........	-327.66
	361	0.0724	-4.49713E-001	-3.03800E-005	0.00000E+000	-4.50000E-001	1.24022E-003	7	...........	-327.66
	365	0.0732	-4.89738E-001	-3.15166E-005	0.00000E+000	-4.90000E-001	1.06522E-003	7	...........	-327.66
	369	0.074	-5.29763E-001	-3.26003E-005	0.00000E+000	-5.30000E-001	1.21522E-003	7	...........	-327.66
	373	0.0748	-5.69688E-001	-3.36177E-005	0.00000E+000	-5.70000E-001	1.19022E-003	7	...........	-327.66
	377	0.0756	-6.09713E-001	-3.45663E-005	0.00000E+000	-6.10000E-001	1.11522E-003	7	...........	-327.66
	381	0.0764	-6.49625E-001	-3.54372E-005	0.00000E+000	-6.50000E-001	1.29022E-003	7	...........	-327.66
	385	0.0772	-6.89663E-001	-3.62150E-005	0.00000E+000	-6.90000E-001	1.01522E-003	7	...........	-327.66
	389	0.078	-7.29688E-001	-3.68916E-005	0.00000E+000	-7.30000E-001	1.16522E-003	7	...........	-327.66
	393	0.0788	-7.69638E-001	-3.74430E-005	0.00000E+000	-7.70000E-001	1.19022E-003	7	...........	-327.66
	397	0.0796	-8.09613E-001	-3.78338E-005	0.00000E+000	-8.10000E-001	1.21522E-003	7	...........	-327.66
	401	0.0804	-8.49675E-001	-3.80195E-005	0.00000E+000	-8.50000E-001	9.65224E-004	7	...........	-327.66
	405	0.0812	-8.89663E-001	-3.79298E-005	0.00000E+000	-8.90000E-001	1.16522E-003	7	...........	-327.66
	409	0.082	-8.69725E-001	-3.07358E-005	0.00000E+000	-8.70000E-001	1.21522E-003	7	...........	-327.66
	413	0.0828	-8.29663E-001	-2.34930E-005	0.00000E+000	-8.30000E-001	1.21522E-003	7	...........	-327.66
	417	0.0836	-7.89663E-001	-1.76555E-005	0.00000E+000	-7.90000E-001	1.11522E-003	7	...........	-327.66
	421	0.0844	-7.49638E-001	-1.26916E-005	0.00000E+000	-7.50000E-001	1.19022E-003	7	...........	-327.66
	425	0.0852	-7.09763E-001	-8.40324E-006	0.00000E+000	-7.10000E-001	1.14022E-003	7	...........	-327.66
	429	0.086	-6.69750E-001	-4.66223E-006	0.00000E+000	-6.70000E-001	1.19022E-003	7	...........	-327.66
	433	0.0868	-6.29675E-001	-1.35328E-006	0.00000E+000	-6.30000E-001	1.14022E-003	7	...........	-327.66
	437	0.0876	-5.89813E-001	1.63188E-006	0.00000E+000	-5.90000E-001	1.14022E-003	7	...........	-327.66
	441	0.0884	-5.49700E-001	4.41576E-006	0.00000E+000	-5.50000E-001	1.11522E-003	7	...........	-327.66
	445	0.0892	-5.09850E-001	7.08612E-006	0.00000E+000	-5.10000E-001	1.16522E-003	7	...........	-327.66
	449	0.09	-4.69738E-001	9.71573E-006	0.00000E+000	-4.70000E-001	1.09022E-003	7	...........	-327.66
	453	0.0908	-4.29938E-001	1.23418E-005	0.00000E+000	-4.30000E-001	1.29022E-003	7	...........	-327.66
	457	0.0916	-3.90063E-001	1.49577E-005	0.00000E+000	-3.90000E-001	1.04022E-003	7	...........	-327.66
	461	0.0924	-3.49988E-001	1.75180E-005	0.00000E+000	-3.50000E-001	1.01522E-003	7	...........	-327.66
	465	0.0932	-3.09963E-001	1.99676E-005	0.00000E+000	-3.10000E-001	1.11522E-003	7	...........	-327.66
	469	0.094	-2.69975E-001	2.22237E-005	0.00000E+000	-2.70000E-001	1.09022E-003	7	...........	-327.66
	473	0.0948	-2.29950E-001	2.42417E-005	0.00000E+000	-2.30000E-001	1.09022E-003	7	...........	-327.66
	477	0.0956	-1.89838E-001	2.59987E-005	0.00000E+000	-1.90000E-001	1.16522E-003	7	...........	-327.66
	481	0.0964	-1.50038E-001	2.74824E-005	0.00000E+000	-1.50000E-001	1.09022E-003	7	...........	-327.66
	485	0.0972	-1.09988E-001	2.87206E-005	0.00000E+000	-1.10000E-001	1.16522E-003	7	...........	-327.66
	489	0.098	-6.99502E-002	2.97380E-005	0.00000E+000	-7.00000E-002	1.24022E-003	7	...........	-327.66
	493	0.0988	-2.99377E-002	3.05596E-005	0.00000E+000	-3.00000E-002	1.14022E-003	7	...........	-327.66
[...]
	693	0.1388	-7.69688E-001	-3.77272E-005	0.00000E+000	-7.70000E-001	1.09022E-003	7	...........	-327.66
	697	0.1396	-8.09600E-001	-3.80248E-005	0.00000E+000	-8.10000E-001	1.04022E-003	7	...........	-327.66
	701	0.1404	-8.49700E-001	-3.81025E-005	0.00000E+000	-8.50000E-001	1.04022E-003	7	...........	-327.66
	705	0.1412	-8.89688E-001	-3.78900E-005	0.00000E+000	-8.90000E-001	1.06522E-003	7	...........	-327.66
	709	0.142	-8.69700E-001	-3.05395E-005	0.00000E+000	-8.70000E-001	1.01522E-003	7	...........	-327.66
	713	0.1428	-8.29725E-001	-2.31132E-005	0.00000E+000	-8.30000E-001	1.16522E-003	7	...........	-327.66
	717	0.1436	-7.89650E-001	-1.71477E-005	0.00000E+000	-7.90000E-001	1.11522E-003	7	...........	-327.66
	721	0.1444	-7.49650E-001	-1.21398E-005	0.00000E+000	-7.50000E-001	1.16522E-003	7	...........	-327.66
	725	0.1452	-7.09713E-001	-7.87667E-006	0.00000E+000	-7.10000E-001	1.29022E-003	7	...........	-327.66
	729	0.146	-6.69663E-001	-4.21517E-006	0.00000E+000	-6.70000E-001	1.01522E-003	7	...........	-327.66
	733	0.1468	-6.29725E-001	-1.00798E-006	0.00000E+000	-6.30000E-001	1.19022E-003	7	...........	-327.66
	737	0.1476	-5.89988E-001	1.87566E-006	0.00000E+000	-5.90000E-001	1.14022E-003	7	...........	-327.66
	741	0.1484	-5.49825E-001	4.57528E-006	0.00000E+000	-5.50000E-001	1.06522E-003	7	...........	-327.66
	745	0.1492	-5.09988E-001	7.19063E-006	0.00000E+000	-5.10000E-001	1.09022E-003	7	...........	-327.66
	749	0.15	-4.69863E-001	9.80949E-006	0.00000E+000	-4.70000E-001	1.26522E-003	7	...........	-327.66
	753	0.1508	-4.29888E-001	1.24659E-005	0.00000E+000	-4.30000E-001	1.21522E-003	7	...........	-327.66
	757	0.1516	-3.89925E-001	1.51522E-005	0.00000E+000	-3.90000E-001	1.14022E-003	7	...........	-327.66
	761	0.1524	-3.49988E-001	1.78096E-005	0.00000E+000	-3.50000E-001	1.19022E-003	7	...........	-327.66
	765	0.1532	-3.09963E-001	2.03624E-005	0.00000E+000	-3.10000E-001	1.14022E-003	7	...........	-327.66
	769	0.154	-2.69913E-001	2.27212E-005	0.00000E+000	-2.70000E-001	1.16522E-003	7	...........	-327.66
	773	0.1548	-2.30038E-001	2.48183E-005	0.00000E+000	-2.30000E-001	1.01522E-003	7	...........	-327.66
	777	0.1556	-1.90063E-001	2.66273E-005	0.00000E+000	-1.90000E-001	1.14022E-003	7	...........	-327.66
	781	0.1564	-1.50013E-001	2.81325E-005	0.00000E+000	-1.50000E-001	9.90224E-004	7	...........	-327.66
	785	0.1572	-1.10100E-001	2.93802E-005	0.00000E+000	-1.10000E-001	1.04022E-003	7	...........	-327.66
	789	0.158	-7.00002E-002	3.03815E-005	0.00000E+000	-7.00000E-002	1.09022E-003	7	...........	-327.66
	793	0.1588	-2.99127E-002	3.11882E-005	0.00000E+000	-3.00000E-002	1.09022E-003	7	...........	-327.66
	797	0.1596	1.00373E-002	3.18232E-005	0.00000E+000	9.99999E-003	1.14022E-003	7	...........	-327.66
	801	0.1604	4.99373E-002	3.23228E-005	0.00000E+000	5.00000E-002	1.04022E-003	7	...........	-327.66
	805	0.1612	9.01748E-002	3.27044E-005	0.00000E+000	9.00000E-002	1.14022E-003	7	...........	-327.66
	809	0.162	1.30075E-001	3.29791E-005	0.00000E+000	1.30000E-001	1.19022E-003	7	...........	-327.66
	813	0.1628	1.70062E-001	3.31332E-005	0.00000E+000	1.70000E-001	1.14022E-003	7	...........	-327.66
	817	0.1636	2.09887E-001	3.31697E-005	0.00000E+000	2.10000E-001	1.19022E-003	7	...........	-327.66
	821	0.1644	2.49975E-001	3.30999E-005	0.00000E+000	2.50000E-001	1.11522E-003	7	...........	-327.66
	825	0.1652	2.89925E-001	3.29406E-005	0.00000E+000	2.90000E-001	1.14022E-003	7	...........	-327.66
	829	0.166	3.29962E-001	3.27129E-005	0.00000E+000	3.30000E-001	1.16522E-003	7	...........	-327.66
	833	0.1668	3.69987E-001	3.24291E-005	0.00000E+000	3.70000E-001	1.21522E-003	7	...........	-327.66
	837	0.1676	4.09850E-001	3.21150E-005	0.00000E+000	4.10000E-001	9.40224E-004	7	...........	-327.66
	841	0.1684	4.49975E-001	3.17837E-005	0.00000E+000	4.50000E-001	1.09022E-003	7	...........	-327.66
	845	0.1692	4.89975E-001	3.14612E-005	0.00000E+000	4.90000E-001	1.09022E-003	7	...........	-327.66
	849	0.17	5.29912E-001	3.11722E-005	0.00000E+000	5.30000E-001	1.11522E-003	7	...........	-327.66
	853	0.1708	5.69925E-001	3.09399E-005	0.00000E+000	5.70000E-001	1.16522E-003	7	...........	-327.66
	856	0.1714	5.99900E-001	3.08154E-005	0.00000E+000	6.00000E-001	1.19022E-003	7	...........	-327.66
CURVE4	TABLE
	Pt	T	Vf	Im	Vu	Sig	Ach	IERange	Over	Temp
	#	s	V vs. Ref.	A	V	V	V	#	bits	deg C
	857	0.1716	5.89987E-001	2.80747E-005	0.00000E+000	5.90000E-001	1.21522E-003	7	...........	-327.66
	858	0.1718	5.79950E-001	2.54986E-005	0.00000E+000	5.80000E-001	1.19022E-003	7	...........	-327.66
	859	0.172	5.70062E-001	2.33431E-005	0.00000E+000	5.70000E-001	1.19022E-003	7	...........	-327.66
	860	0.1722	5.59962E-001	2.14681E-005	0.00000E+000	5.60000E-001	1.24022E-003	7	...........	-327.66
	861	0.1724	5.50012E-001	1.97954E-005	0.00000E+000	5.50000E-001	1.14022E-003	7	...........	-327.66
	862	0.1726	5.39925E-001	1.82711E-005	0.00000E+000	5.40000E-001	1.16522E-003	7	...........	-327.66
	863	0.1728	5.30037E-001	1.68765E-005	0.00000E+000	5.30000E-001	1.21522E-003	7	...........	-327.66
	864	0.173	5.20012E-001	1.55758E-005	0.00000E+000	5.20000E-001	1.21522E-003	7	...........	-327.66
	865	0.1732	5.10112E-001	1.43616E-005	0.00000E+000	5.10000E-001	1.09022E-003	7	...........	-327.66
	866	0.1734	4.99975E-001	1.32162E-005	0.00000E+000	5.00000E-001	1.24022E-003	7	...........	-327.66
	867	0.1736	4.90012E-001	1.21293E-005	0.00000E+000	4.90000E-001	1.29022E-003	7	...........	-327.66
	868	0.1738	4.79937E-001	1.10992E-005	0.00000E+000	4.80000E-001	1.29022E-003	7	...........	-327.66
	869	0.174	4.69937E-001	1.01203E-005	0.00000E+000	4.70000E-001	1.11522E-003	7	...........	-327.66
	870	0.1742	4.59950E-001	9.18166E-006	0.00000E+000	4.60000E-001	1.19022E-003	7	...........	-327.66
	871	0.1744	4.50062E-001	8.27853E-006	0.00000E+000	4.50000E-001	1.29022E-003	7	...........	-327.66
	872	0.1746	4.39962E-001	7.40966E-006	0.00000E+000	4.40000E-001	9.90224E-004	7	...........	-327.66
	873	0.1748	4.29937E-001	6.57880E-006	0.00000E+000	4.30000E-001	1.16522E-003	7	...........	-327.66
	874	0.175	4.20075E-001	5.77219E-006	0.00000E+000	4.20000E-001	1.11522E-003	7	...........	-327.66
	875	0.1752	4.10137E-001	4.99583E-006	0.00000E+000	4.10000E-001	1.16522E-003	7	...........	-327.66
	876	0.1754	3.99987E-001	4.23873E-006	0.00000E+000	4.00000E-001	1.11522E-003	7	...........	-327.66
	877	0.1756	3.90075E-001	3.50288E-006	0.00000E+000	3.90000E-001	1.29022E-003	7	...........	-327.66
	878	0.1758	3.79962E-001	2.79178E-006	0.00000E+000	3.80000E-001	1.24022E-003	7	...........	-327.66
	879	0.176	3.69987E-001	2.10519E-006	0.00000E+000	3.70000E-001	1.19022E-003	7	...........	-327.66
	880	0.1762	3.59987E-001	1.43260E-006	0.00000E+000	3.60000E-001	1.16522E-003	7	...........	-327.66
	881	0.1764	3.50062E-001	7.71509E-007	0.00000E+000	3.50000E-001	1.09022E-003	7	...........	-327.66
	882	0.1766	3.40037E-001	1.37923E-007	0.00000E+000	3.40000E-001	1.11522E-003	7	...........	-327.66
	883	0.1768	3.30237E-001	-4.89663E-007	0.00000E+000	3.30000E-001	1.01522E-003	7	...........	-327.66
	884	0.177	3.19987E-001	-1.09525E-006	0.00000E+000	3.20000E-001	1.14022E-003	7	...........	-327.66
	885	0.1772	3.10037E-001	-1.69358E-006	0.00000E+000	3.10000E-001	1.19022E-003	7	...........	-327.66
	886	0.1774	3.00000E-001	-2.27791E-006	0.00000E+000	3.00000E-001	1.16522E-003	7	...........	-327.66
	887	0.1776	2.90075E-001	-2.84723E-006	0.00000E+000	2.90000E-001	1.14022E-003	7	...........	-327.66
	888	0.1778	2.80012E-001	-3.40681E-006	0.00000E+000	2.80000E-001	1.01522E-003	7	...........	-327.66
	889	0.178	2.70225E-001	-3.95439E-006	0.00000E+000	2.70000E-001	1.16522E-003	7	...........	-327.66
	890	0.1782	2.60137E-001	-4.49771E-006	0.00000E+000	2.60000E-001	1.11522E-003	7	...........	-327.66
	891	0.1784	2.50237E-001	-5.02228E-006	0.00000E+000	2.50000E-001	9.40224E-004	7	...........	-327.66
	892	0.1786	2.40075E-001	-5.54035E-006	0.00000E+000	2.40000E-001	1.11522E-003	7	...........	-327.66
	893	0.1788	2.30137E-001	-6.05042E-006	0.00000E+000	2.30000E-001	1.11522E-003	7	...........	-327.66
	894	0.179	2.20012E-001	-6.55374E-006	0.00000E+000	2.20000E-001	1.29022E-003	7	...........	-327.66
	895	0.1792	2.10187E-001	-7.05156E-006	0.00000E+000	2.10000E-001	1.14022E-003	7	...........	-327.66
	896	0.1794	2.00025E-001	-7.53837E-006	0.00000E+000	2.00000E-001	9.90224E-004	7	...........	-327.66
	897	0.1796	1.90100E-001	-8.01994E-006	0.00000E+000	1.90000E-001	1.14022E-003	7	...........	-327.66
	898	0.1798	1.80162E-001	-8.49775E-006	0.00000E+000	1.80000E-001	1.14022E-003	7	...........	-327.66
	899	0.18	1.70212E-001	-8.96482E-006	0.00000E+000	1.70000E-001	9.65224E-004	7	...........	-327.66
	900	0.1802	1.60100E-001	-9.42463E-006	0.00000E+000	1.60000E-001	1.01522E-003	7	...........	-327.66