File: Test_Data_Files/20250509_ZM_IF0011_IIA42_E09_PBSair_PEDOT_CV5000.DTA
EXPLAIN
TAG	CV
TITLE	LABEL	CV5000	Test Identifier
DATE	LABEL	5/9/2025	Date
TIME	LABEL	15:48:28	Time
NOTES	NOTES	1	Notes...

PSTAT	PSTAT	REF600P-43058	Potentiostat
VINIT	POTEN	0.00000E+000	T	Initial E (V)
VLIMIT1	POTEN	-9.00000E-001	F	Scan Limit 1 (V)
VLIMIT2	POTEN	6.00000E-001	F	Scan Limit 2 (V)
VFINAL	POTEN	0.00000E+000	T	Final E (V)
SCANRATE	QUANT	4.99999E+003	Scan Rate (mV/s)
STEPSIZE	QUANT	1.00000E+001	Step Size (mV)
CYCLES	IQUANT	3	Cycles (#)
IMODE	SELECTOR	1	I/E Range Mode
IRANGE	QUANT	1.00000E-002	Max Current (mA)
AREA	QUANT	1.00000E+000	Sample Area (cm^2)
EQDELAY	QUANT	5.00000E+000	Equil. Time (s)
IRCOMP	SELECTOR	0	IRComp
PFCOR	QUANT	5.00000E+001	PF Corr. (ohm)
SAMPLINGMODE	SELECTOR	2	Sampling Mode
EOC	QUANT	0.1477523	Open Circuit (V)
ELECTRODETYPE	SELECTOR	0	Electrode Type
STRIPPING	TOGGLE	F	Used for Stripping
SEQUENCER	TOGGLE	TRUE	Run as Sequence
PSTATMODEL	IQUANT	7	Pstat Model
PSTATSECTION	LABEL	REF600P-43058	Pstat Section
PSTATSERIALNO	LABEL	43058	Pstat Serial Number
CTRLMODE	IQUANT	1	Control Mode
ELECTROMETER	IQUANT	0	RE=0 or CS=1
IESTAB	IQUANT	2	I/E Stability
CASPEED	IQUANT	4	Control Amp Speed
CONVENTION	IQUANT	1	Current Convention
ICHRANGE	IQUANT	2	Ich Range
ICHRANGEMODE	TOGGLE	F	Ich Auto Range
ICHOFFSETENABLE	TOGGLE	F	Ich Offset Enable
ICHOFFSET	QUANT	0	Ich Offset (V)
ICHFILTER	IQUANT	2	Ich Filter
VCHRANGE	IQUANT	2	Vch Range
VCHRANGEMODE	TOGGLE	F	Vch Auto Range
VCHOFFSETENABLE	TOGGLE	F	Vch Offset Enable
VCHOFFSET	QUANT	0	Vch Offset (V)
VCHFILTER	IQUANT	2	Vch Filter
ACHRANGE	IQUANT	2	Ach Range
ACHOFFSETENABLE	TOGGLE	F	Ach Offset Enable
ACHOFFSET	QUANT	0	Ach Offset (V)
ACHFILTER	IQUANT	1	Ach Filter
IERANGELOWERLIMIT	IQUANT	1	I/E Range Lower Limit
IERANGEMODE	TOGGLE	F	I/E AutoRange
IERANGE	IQUANT	7	I/E Range
POSFEEDENABLE	TOGGLE	F	Positive Feedback IR Comp
POSFEEDRESISTANCE	QUANT	0	Positive Feedback Resistance (ohm)
ACHSELECT	IQUANT	4	Ach Select
SENSECABLEID	IQUANT	7	Sense Cable ID
PWRCABLEID	IQUANT	7	Power Cable ID
DCCALDATE	LABEL	5/8/2025	DC Calibration Date
ACCALDATE	LABEL	5/8/2025	AC Calibration Date
THERMOSELECT	IQUANT	1	Thermo Select
FRAMEWORKVERSION	LABEL	7.10.4	Framework Version
INSTRUMENTVERSION	LABEL	5.01	Instrument Version
COMMVERSION	LABEL	5.10	Communications Version
CPUPLDVERSION	LABEL	6.00	CPU PLD Version
CTRLPLDVERSION	LABEL	3.21	CTRL PLD Version
PSTATPLDVERSION	LABEL	0.00	PSTAT PLD Version
CURVE1	TABLE
	Pt	T	Vf	Im	Vu	Sig	Ach	IERange	Over	Temp
	#	s	V vs. Ref.	A	V	V	V	#	bits	deg C
	0	0.002	1.47907E-001	9.59654E-009	0.00000E+000	1.47750E-001	1.35057E-003	7	...........	-327.66
	3	0.008	1.18606E-001	-1.35371E-006	0.00000E+000	1.17750E-001	1.34884E-003	7	...........	-327.66
	6	0.014	8.85945E-002	-1.93901E-006	0.00000E+000	8.77500E-002	1.43678E-003	7	...........	-327.66
	9	0.02	5.85592E-002	-2.36738E-006	0.00000E+000	5.77500E-002	1.41264E-003	7	...........	-327.66
	12	0.026	2.86109E-002	-2.70955E-006	0.00000E+000	2.77500E-002	1.45057E-003	7	...........	-327.66
	15	0.032	-1.44166E-003	-2.99335E-006	0.00000E+000	-2.25002E-003	1.48678E-003	7	...........	-327.66
	18	0.038	-3.14486E-002	-3.23474E-006	0.00000E+000	-3.22500E-002	1.42298E-003	7	...........	-327.66
	21	0.044	-6.14123E-002	-3.44432E-006	0.00000E+000	-6.22500E-002	1.45057E-003	7	...........	-327.66
	24	0.05	-9.13899E-002	-3.62949E-006	0.00000E+000	-9.22500E-002	1.41436E-003	7	...........	-327.66
	27	0.056	-1.21464E-001	-3.80010E-006	0.00000E+000	-1.22250E-001	1.40402E-003	7	...........	-327.66
	30	0.062	-1.51445E-001	-3.95560E-006	0.00000E+000	-1.52250E-001	1.45919E-003	7	...........	-327.66
	33	0.068	-1.81460E-001	-4.10322E-006	0.00000E+000	-1.82250E-001	1.37988E-003	7	...........	-327.66
	36	0.074	-2.11350E-001	-4.24336E-006	0.00000E+000	-2.12250E-001	1.48850E-003	7	...........	-327.66
	39	0.08	-2.41347E-001	-4.37633E-006	0.00000E+000	-2.42250E-001	1.43505E-003	7	...........	-327.66
	42	0.086	-2.71342E-001	-4.50236E-006	0.00000E+000	-2.72250E-001	1.49195E-003	7	...........	-327.66
	45	0.092	-3.01407E-001	-4.62074E-006	0.00000E+000	-3.02250E-001	1.45747E-003	7	...........	-327.66
	48	0.098	-3.31369E-001	-4.72667E-006	0.00000E+000	-3.32250E-001	1.46264E-003	7	...........	-327.66
	51	0.104	-3.61408E-001	-4.82175E-006	0.00000E+000	-3.62250E-001	1.40919E-003	7	...........	-327.66
	54	0.11	-3.91384E-001	-4.90366E-006	0.00000E+000	-3.92250E-001	1.39712E-003	7	...........	-327.66
	57	0.116	-4.21376E-001	-4.96996E-006	0.00000E+000	-4.22250E-001	1.39884E-003	7	...........	-327.66
	60	0.122	-4.51312E-001	-5.02119E-006	0.00000E+000	-4.52250E-001	1.44367E-003	7	...........	-327.66
	63	0.128	-4.81358E-001	-5.06054E-006	0.00000E+000	-4.82250E-001	1.40574E-003	7	...........	-327.66
	66	0.134	-5.11392E-001	-5.08458E-006	0.00000E+000	-5.12250E-001	1.37298E-003	7	...........	-327.66
	69	0.14	-5.41393E-001	-5.09694E-006	0.00000E+000	-5.42250E-001	1.41436E-003	7	...........	-327.66
	72	0.146	-5.71317E-001	-5.09058E-006	0.00000E+000	-5.72250E-001	1.40919E-003	7	...........	-327.66
	75	0.152	-6.01334E-001	-5.04673E-006	0.00000E+000	-6.02250E-001	1.37988E-003	7	...........	-327.66
	78	0.158	-6.31306E-001	-4.93977E-006	0.00000E+000	-6.32250E-001	1.37471E-003	7	...........	-327.66
	81	0.164	-6.61334E-001	-4.72986E-006	0.00000E+000	-6.62250E-001	1.41091E-003	7	...........	-327.66
	84	0.17	-6.91275E-001	-4.37502E-006	0.00000E+000	-6.92250E-001	1.40057E-003	7	...........	-327.66
	87	0.176	-7.21350E-001	-3.86729E-006	0.00000E+000	-7.22250E-001	1.42298E-003	7	...........	-327.66
	90	0.182	-7.51345E-001	-3.24814E-006	0.00000E+000	-7.52250E-001	1.39540E-003	7	...........	-327.66
	93	0.188	-7.81319E-001	-2.59543E-006	0.00000E+000	-7.82250E-001	1.50402E-003	7	...........	-327.66
	96	0.194	-8.11306E-001	-2.02696E-006	0.00000E+000	-8.12250E-001	1.42126E-003	7	...........	-327.66
	99	0.2	-8.41357E-001	-1.59478E-006	0.00000E+000	-8.42250E-001	1.41781E-003	7	...........	-327.66
	102	0.206	-8.71394E-001	-1.30327E-006	0.00000E+000	-8.72250E-001	1.39540E-003	7	...........	-327.66
	105	0.212	-9.01364E-001	-1.10600E-006	0.00000E+000	-9.02250E-001	1.45574E-003	7	...........	-327.66
	108	0.218	-8.72885E-001	-8.08791E-007	0.00000E+000	-8.72250E-001	1.44367E-003	7	...........	-327.66
	111	0.224	-8.42960E-001	-6.45010E-007	0.00000E+000	-8.42250E-001	1.38160E-003	7	...........	-327.66
	114	0.23	-8.12899E-001	-5.15682E-007	0.00000E+000	-8.12250E-001	1.41264E-003	7	...........	-327.66
	117	0.236	-7.82877E-001	-3.86492E-007	0.00000E+000	-7.82250E-001	1.41953E-003	7	...........	-327.66
	120	0.242	-7.52882E-001	-2.35971E-007	0.00000E+000	-7.52250E-001	1.44367E-003	7	...........	-327.66
	123	0.248	-7.22977E-001	-3.88066E-008	0.00000E+000	-7.22250E-001	1.39195E-003	7	...........	-327.66
	126	0.254	-6.92894E-001	2.31006E-007	0.00000E+000	-6.92250E-001	1.36091E-003	7	...........	-327.66
	129	0.26	-6.62967E-001	6.05419E-007	0.00000E+000	-6.62250E-001	1.37643E-003	7	...........	-327.66
	132	0.266	-6.32970E-001	1.12201E-006	0.00000E+000	-6.32250E-001	1.35229E-003	7	...........	-327.66
	135	0.272	-6.02989E-001	1.80355E-006	0.00000E+000	-6.02250E-001	1.45574E-003	7	...........	-327.66
	138	0.278	-5.72917E-001	2.66180E-006	0.00000E+000	-5.72250E-001	1.41781E-003	7	...........	-327.66
	141	0.284	-5.43023E-001	3.65137E-006	0.00000E+000	-5.42250E-001	1.41609E-003	7	...........	-327.66
	144	0.29	-5.13032E-001	4.60822E-006	0.00000E+000	-5.12250E-001	1.44712E-003	7	...........	-327.66
	147	0.296	-4.83038E-001	5.20270E-006	0.00000E+000	-4.82250E-001	1.38850E-003	7	...........	-327.66
	150	0.302	-4.52962E-001	5.29076E-006	0.00000E+000	-4.52250E-001	1.38678E-003	7	...........	-327.66
	153	0.308	-4.23013E-001	5.08243E-006	0.00000E+000	-4.22250E-001	1.47126E-003	7	...........	-327.66
	156	0.314	-3.93009E-001	4.82648E-006	0.00000E+000	-3.92250E-001	1.42471E-003	7	...........	-327.66
	159	0.32	-3.63039E-001	4.63428E-006	0.00000E+000	-3.62250E-001	1.42126E-003	7	...........	-327.66
	162	0.326	-3.33036E-001	4.51506E-006	0.00000E+000	-3.32250E-001	1.46953E-003	7	...........	-327.66
	165	0.332	-3.03048E-001	4.44841E-006	0.00000E+000	-3.02250E-001	1.43505E-003	7	...........	-327.66
	168	0.338	-2.73030E-001	4.40980E-006	0.00000E+000	-2.72250E-001	1.44884E-003	7	...........	-327.66
	171	0.344	-2.43011E-001	4.38119E-006	0.00000E+000	-2.42250E-001	1.40747E-003	7	...........	-327.66
	174	0.35	-2.12988E-001	4.35445E-006	0.00000E+000	-2.12250E-001	1.46609E-003	7	...........	-327.66
	177	0.356	-1.83084E-001	4.33450E-006	0.00000E+000	-1.82250E-001	1.40229E-003	7	...........	-327.66
	180	0.362	-1.53088E-001	4.31799E-006	0.00000E+000	-1.52250E-001	1.39367E-003	7	...........	-327.66
	183	0.368	-1.23092E-001	4.30372E-006	0.00000E+000	-1.22250E-001	1.44540E-003	7	...........	-327.66
	186	0.374	-9.30330E-002	4.29315E-006	0.00000E+000	-9.22500E-002	1.43850E-003	7	...........	-327.66
	189	0.38	-6.30305E-002	4.28013E-006	0.00000E+000	-6.22500E-002	1.48850E-003	7	...........	-327.66
	192	0.386	-3.30546E-002	4.26571E-006	0.00000E+000	-3.22500E-002	1.46264E-003	7	...........	-327.66
	195	0.392	-3.07614E-003	4.24660E-006	0.00000E+000	-2.25002E-003	1.44195E-003	7	...........	-327.66
	198	0.398	2.70023E-002	4.22465E-006	0.00000E+000	2.77500E-002	1.38505E-003	7	...........	-327.66
	201	0.404	5.69713E-002	4.19744E-006	0.00000E+000	5.77500E-002	1.47126E-003	7	...........	-327.66
	204	0.41	8.69669E-002	4.16763E-006	0.00000E+000	8.77500E-002	1.41264E-003	7	...........	-327.66
	207	0.416	1.16976E-001	4.13581E-006	0.00000E+000	1.17750E-001	1.45747E-003	7	...........	-327.66
	210	0.422	1.47029E-001	4.10145E-006	0.00000E+000	1.47750E-001	1.41091E-003	7	...........	-327.66
	213	0.428	1.76995E-001	4.06737E-006	0.00000E+000	1.77750E-001	1.41436E-003	7	...........	-327.66
	216	0.434	2.06925E-001	4.03568E-006	0.00000E+000	2.07750E-001	1.43505E-003	7	...........	-327.66
	219	0.44	2.36908E-001	4.00349E-006	0.00000E+000	2.37750E-001	1.41264E-003	7	...........	-327.66
	222	0.446	2.66960E-001	3.97512E-006	0.00000E+000	2.67750E-001	1.46781E-003	7	...........	-327.66
	225	0.452	2.96910E-001	3.95148E-006	0.00000E+000	2.97750E-001	1.37471E-003	7	...........	-327.66
	228	0.458	3.26952E-001	3.93370E-006	0.00000E+000	3.27750E-001	1.43678E-003	7	...........	-327.66
	231	0.464	3.56921E-001	3.92215E-006	0.00000E+000	3.57750E-001	1.42815E-003	7	...........	-327.66
	234	0.47	3.86946E-001	3.92078E-006	0.00000E+000	3.87750E-001	1.39712E-003	7	...........	-327.66
	237	0.476	4.16904E-001	3.92798E-006	0.00000E+000	4.17750E-001	1.43160E-003	7	...........	-327.66
	240	0.482	4.46928E-001	3.94537E-006	0.00000E+000	4.47750E-001	1.47298E-003	7	...........	-327.66
	243	0.488	4.76876E-001	3.97219E-006	0.00000E+000	4.77750E-001	1.39367E-003	7	...........	-327.66
	246	0.494	5.06951E-001	4.00928E-006	0.00000E+000	5.07750E-001	1.46781E-003	7	...........	-327.66
	249	0.5	5.36890E-001	4.05372E-006	0.00000E+000	5.37750E-001	1.40919E-003	7	...........	-327.66
	252	0.506	5.66876E-001	4.10898E-006	0.00000E+000	5.67750E-001	1.47643E-003	7	...........	-327.66
	255	0.512	5.96882E-001	4.17661E-006	0.00000E+000	5.97750E-001	1.44884E-003	7	...........	-327.66
CURVE2	TABLE
	Pt	T	Vf	Im	Vu	Sig	Ach	IERange	Over	Temp
	#	s	V vs. Ref.	A	V	V	V	#	bits	deg C
	256	0.514	5.90548E-001	2.94808E-006	0.00000E+000	5.90000E-001	1.47471E-003	7	...........	-327.66
	259	0.52	5.60751E-001	1.09088E-006	0.00000E+000	5.60000E-001	1.41609E-003	7	...........	-327.66
	262	0.526	5.30782E-001	5.24472E-008	0.00000E+000	5.30000E-001	1.45747E-003	7	...........	-327.66
	265	0.532	5.00800E-001	-6.95913E-007	0.00000E+000	5.00000E-001	1.41609E-003	7	...........	-327.66
	268	0.538	4.70771E-001	-1.27170E-006	0.00000E+000	4.70000E-001	1.42298E-003	7	...........	-327.66
	271	0.544	4.40743E-001	-1.72866E-006	0.00000E+000	4.40000E-001	1.37298E-003	7	...........	-327.66
	274	0.55	4.10763E-001	-2.09566E-006	0.00000E+000	4.10000E-001	1.41781E-003	7	...........	-327.66
	277	0.556	3.80824E-001	-2.39901E-006	0.00000E+000	3.80000E-001	1.41609E-003	7	...........	-327.66
	280	0.562	3.50819E-001	-2.65475E-006	0.00000E+000	3.50000E-001	1.40747E-003	7	...........	-327.66
	283	0.568	3.20806E-001	-2.86967E-006	0.00000E+000	3.20000E-001	1.41781E-003	7	...........	-327.66
	286	0.574	2.90787E-001	-3.05555E-006	0.00000E+000	2.90000E-001	1.43850E-003	7	...........	-327.66
	289	0.58	2.60781E-001	-3.22190E-006	0.00000E+000	2.60000E-001	1.34540E-003	7	...........	-327.66
	292	0.586	2.30782E-001	-3.36721E-006	0.00000E+000	2.30000E-001	1.38678E-003	7	...........	-327.66
	295	0.592	2.00811E-001	-3.50090E-006	0.00000E+000	2.00000E-001	1.45229E-003	7	...........	-327.66
	298	0.598	1.70838E-001	-3.62336E-006	0.00000E+000	1.70000E-001	1.35919E-003	7	...........	-327.66
	301	0.604	1.40889E-001	-3.73434E-006	0.00000E+000	1.40000E-001	1.43678E-003	7	...........	-327.66
	304	0.61	1.10826E-001	-3.83791E-006	0.00000E+000	1.10000E-001	1.44367E-003	7	...........	-327.66
	307	0.616	8.07980E-002	-3.93496E-006	0.00000E+000	8.00000E-002	1.45747E-003	7	...........	-327.66
	310	0.622	5.08532E-002	-4.02318E-006	0.00000E+000	5.00000E-002	1.36781E-003	7	...........	-327.66
	313	0.628	2.08368E-002	-4.10691E-006	0.00000E+000	2.00000E-002	1.39195E-003	7	...........	-327.66
	316	0.634	-9.14683E-003	-4.18285E-006	0.00000E+000	-1.00000E-002	1.42988E-003	7	...........	-327.66
	319	0.64	-3.91520E-002	-4.25416E-006	0.00000E+000	-4.00000E-002	1.41091E-003	7	...........	-327.66
	322	0.646	-6.91546E-002	-4.32080E-006	0.00000E+000	-7.00000E-002	1.43333E-003	7	...........	-327.66
	325	0.652	-9.91684E-002	-4.38295E-006	0.00000E+000	-1.00000E-001	1.46609E-003	7	...........	-327.66
	328	0.658	-1.29201E-001	-4.43985E-006	0.00000E+000	-1.30000E-001	1.42471E-003	7	...........	-327.66
	331	0.664	-1.59199E-001	-4.49157E-006	0.00000E+000	-1.60000E-001	1.43160E-003	7	...........	-327.66
	334	0.67	-1.89088E-001	-4.53654E-006	0.00000E+000	-1.90000E-001	1.39884E-003	7	...........	-327.66
	337	0.676	-2.19083E-001	-4.57711E-006	0.00000E+000	-2.20000E-001	1.40574E-003	7	...........	-327.66
	340	0.682	-2.49124E-001	-4.60927E-006	0.00000E+000	-2.50000E-001	1.48160E-003	7	...........	-327.66
	343	0.688	-2.79174E-001	-4.63392E-006	0.00000E+000	-2.80000E-001	1.42126E-003	7	...........	-327.66
	346	0.694	-3.09136E-001	-4.64954E-006	0.00000E+000	-3.10000E-001	1.38850E-003	7	...........	-327.66
	349	0.7	-3.39153E-001	-4.65821E-006	0.00000E+000	-3.40000E-001	1.46609E-003	7	...........	-327.66
	352	0.706	-3.69073E-001	-4.65973E-006	0.00000E+000	-3.70000E-001	1.49022E-003	7	...........	-327.66
	355	0.712	-3.99134E-001	-4.65816E-006	0.00000E+000	-4.00000E-001	1.46781E-003	7	...........	-327.66
	358	0.718	-4.29124E-001	-4.65269E-006	0.00000E+000	-4.30000E-001	1.41953E-003	7	...........	-327.66
	361	0.724	-4.59147E-001	-4.64462E-006	0.00000E+000	-4.60000E-001	1.44884E-003	7	...........	-327.66
	364	0.73	-4.89114E-001	-4.63688E-006	0.00000E+000	-4.90000E-001	1.37815E-003	7	...........	-327.66
	367	0.736	-5.19155E-001	-4.62866E-006	0.00000E+000	-5.20000E-001	1.39367E-003	7	...........	-327.66
	370	0.742	-5.49072E-001	-4.60948E-006	0.00000E+000	-5.50000E-001	1.42471E-003	7	...........	-327.66
	373	0.748	-5.79082E-001	-4.56994E-006	0.00000E+000	-5.80000E-001	1.42643E-003	7	...........	-327.66
	376	0.754	-6.09138E-001	-4.49055E-006	0.00000E+000	-6.10000E-001	1.48333E-003	7	...........	-327.66
	379	0.76	-6.39126E-001	-4.33679E-006	0.00000E+000	-6.40000E-001	1.48333E-003	7	...........	-327.66
	382	0.766	-6.69078E-001	-4.07924E-006	0.00000E+000	-6.70000E-001	1.45229E-003	7	...........	-327.66
	385	0.772	-6.99111E-001	-3.70089E-006	0.00000E+000	-7.00000E-001	1.38160E-003	7	...........	-327.66
	388	0.778	-7.29073E-001	-3.22095E-006	0.00000E+000	-7.30000E-001	1.40057E-003	7	...........	-327.66
	391	0.784	-7.59136E-001	-2.68201E-006	0.00000E+000	-7.60000E-001	1.45574E-003	7	...........	-327.66
	394	0.79	-7.89131E-001	-2.17132E-006	0.00000E+000	-7.90000E-001	1.38678E-003	7	...........	-327.66
	397	0.796	-8.19161E-001	-1.74359E-006	0.00000E+000	-8.20000E-001	1.41436E-003	7	...........	-327.66
	400	0.802	-8.49130E-001	-1.42165E-006	0.00000E+000	-8.50000E-001	1.43505E-003	7	...........	-327.66
	403	0.808	-8.79146E-001	-1.19914E-006	0.00000E+000	-8.80000E-001	1.40229E-003	7	...........	-327.66
	406	0.814	-8.90679E-001	-9.74072E-007	0.00000E+000	-8.90000E-001	1.44195E-003	7	...........	-327.66
	409	0.82	-8.60718E-001	-7.45213E-007	0.00000E+000	-8.60000E-001	1.47815E-003	7	...........	-327.66
	412	0.826	-8.30649E-001	-5.93417E-007	0.00000E+000	-8.30000E-001	1.44540E-003	7	...........	-327.66
	415	0.832	-8.00693E-001	-4.58760E-007	0.00000E+000	-8.00000E-001	1.43333E-003	7	...........	-327.66
	418	0.838	-7.70666E-001	-3.16758E-007	0.00000E+000	-7.70000E-001	1.40229E-003	7	...........	-327.66
	421	0.844	-7.40735E-001	-1.39476E-007	0.00000E+000	-7.40000E-001	1.42471E-003	7	...........	-327.66
	424	0.85	-7.10693E-001	9.71085E-008	0.00000E+000	-7.10000E-001	1.38678E-003	7	...........	-327.66
	427	0.856	-6.80674E-001	4.21360E-007	0.00000E+000	-6.80000E-001	1.42815E-003	7	...........	-327.66
	430	0.862	-6.50685E-001	8.69317E-007	0.00000E+000	-6.50000E-001	1.38333E-003	7	...........	-327.66
	433	0.868	-6.20718E-001	1.47369E-006	0.00000E+000	-6.20000E-001	1.41953E-003	7	...........	-327.66
	436	0.874	-5.90761E-001	2.25294E-006	0.00000E+000	-5.90000E-001	1.41609E-003	7	...........	-327.66
	439	0.88	-5.60777E-001	3.19301E-006	0.00000E+000	-5.60000E-001	1.46781E-003	7	...........	-327.66
[...]
	736	1.474	-5.90749E-001	2.30310E-006	0.00000E+000	-5.90000E-001	1.44712E-003	7	...........	-327.66
	739	1.48	-5.60786E-001	3.25133E-006	0.00000E+000	-5.60000E-001	1.44540E-003	7	...........	-327.66
	742	1.486	-5.30798E-001	4.24709E-006	0.00000E+000	-5.30000E-001	1.46436E-003	7	...........	-327.66
	745	1.492	-5.00716E-001	5.00235E-006	0.00000E+000	-5.00000E-001	1.43678E-003	7	...........	-327.66
	748	1.498	-4.70697E-001	5.25716E-006	0.00000E+000	-4.70000E-001	1.39367E-003	7	...........	-327.66
	751	1.504	-4.40770E-001	5.09813E-006	0.00000E+000	-4.40000E-001	1.42815E-003	7	...........	-327.66
	754	1.51	-4.10799E-001	4.81542E-006	0.00000E+000	-4.10000E-001	1.43678E-003	7	...........	-327.66
	757	1.516	-3.80785E-001	4.58260E-006	0.00000E+000	-3.80000E-001	1.42643E-003	7	...........	-327.66
	760	1.522	-3.50786E-001	4.43549E-006	0.00000E+000	-3.50000E-001	1.40747E-003	7	...........	-327.66
	763	1.528	-3.20778E-001	4.35869E-006	0.00000E+000	-3.20000E-001	1.44195E-003	7	...........	-327.66
	766	1.534	-2.90748E-001	4.31230E-006	0.00000E+000	-2.90000E-001	1.49367E-003	7	...........	-327.66
	769	1.54	-2.60774E-001	4.28135E-006	0.00000E+000	-2.60000E-001	1.42298E-003	7	...........	-327.66
	772	1.546	-2.30791E-001	4.26107E-006	0.00000E+000	-2.30000E-001	1.43160E-003	7	...........	-327.66
	775	1.552	-2.00830E-001	4.24479E-006	0.00000E+000	-2.00000E-001	1.42815E-003	7	...........	-327.66
	778	1.558	-1.70796E-001	4.23391E-006	0.00000E+000	-1.70000E-001	1.46609E-003	7	...........	-327.66
	781	1.564	-1.40778E-001	4.22496E-006	0.00000E+000	-1.40000E-001	1.39884E-003	7	...........	-327.66
	784	1.57	-1.10793E-001	4.21929E-006	0.00000E+000	-1.10000E-001	1.46091E-003	7	...........	-327.66
	787	1.576	-8.08063E-002	4.21343E-006	0.00000E+000	-8.00000E-002	1.39367E-003	7	...........	-327.66
	790	1.582	-5.08244E-002	4.20534E-006	0.00000E+000	-5.00000E-002	1.41264E-003	7	...........	-327.66
	793	1.588	-2.08046E-002	4.19444E-006	0.00000E+000	-2.00000E-002	1.41091E-003	7	...........	-327.66
	796	1.594	9.23248E-003	4.18201E-006	0.00000E+000	9.99999E-003	1.47988E-003	7	...........	-327.66
	799	1.6	3.91273E-002	4.16418E-006	0.00000E+000	4.00000E-002	1.41091E-003	7	...........	-327.66
	802	1.606	6.92109E-002	4.14116E-006	0.00000E+000	7.00000E-002	1.44195E-003	7	...........	-327.66
	805	1.612	9.92109E-002	4.11567E-006	0.00000E+000	1.00000E-001	1.45402E-003	7	...........	-327.66
	808	1.618	1.29239E-001	4.08984E-006	0.00000E+000	1.30000E-001	1.46436E-003	7	...........	-327.66
	811	1.624	1.59225E-001	4.06042E-006	0.00000E+000	1.60000E-001	1.40919E-003	7	...........	-327.66
	814	1.63	1.89217E-001	4.03273E-006	0.00000E+000	1.90000E-001	1.47126E-003	7	...........	-327.66
	817	1.636	2.19182E-001	4.00533E-006	0.00000E+000	2.20000E-001	1.37298E-003	7	...........	-327.66
	820	1.642	2.49231E-001	3.98190E-006	0.00000E+000	2.50000E-001	1.40402E-003	7	...........	-327.66
	823	1.648	2.79153E-001	3.95939E-006	0.00000E+000	2.80000E-001	1.44540E-003	7	...........	-327.66
	826	1.654	3.09182E-001	3.94305E-006	0.00000E+000	3.10000E-001	1.42298E-003	7	...........	-327.66
	829	1.66	3.39199E-001	3.93187E-006	0.00000E+000	3.40000E-001	1.46264E-003	7	...........	-327.66
	832	1.666	3.69200E-001	3.93068E-006	0.00000E+000	3.70000E-001	1.45402E-003	7	...........	-327.66
	835	1.672	3.99202E-001	3.93642E-006	0.00000E+000	4.00000E-001	1.42815E-003	7	...........	-327.66
	838	1.678	4.29158E-001	3.95110E-006	0.00000E+000	4.30000E-001	1.44195E-003	7	...........	-327.66
	841	1.684	4.59178E-001	3.97598E-006	0.00000E+000	4.60000E-001	1.48850E-003	7	...........	-327.66
	844	1.69	4.89151E-001	4.01204E-006	0.00000E+000	4.90000E-001	1.43505E-003	7	...........	-327.66
	847	1.696	5.19163E-001	4.05792E-006	0.00000E+000	5.20000E-001	1.41436E-003	7	...........	-327.66
	850	1.702	5.49169E-001	4.11510E-006	0.00000E+000	5.50000E-001	1.41609E-003	7	...........	-327.66
	853	1.708	5.79187E-001	4.18134E-006	0.00000E+000	5.80000E-001	1.42988E-003	7	...........	-327.66
	855	1.712	5.99161E-001	4.23148E-006	0.00000E+000	6.00000E-001	1.42471E-003	7	...........	-327.66
CURVE4	TABLE
	Pt	T	Vf	Im	Vu	Sig	Ach	IERange	Over	Temp
	#	s	V vs. Ref.	A	V	V	V	#	bits	deg C
	856	1.714	5.90749E-001	2.80986E-006	0.00000E+000	5.90000E-001	1.43333E-003	7	...........	-327.66
	857	1.716	5.80774E-001	2.02866E-006	0.00000E+000	5.80000E-001	1.44195E-003	7	...........	-327.66
	858	1.718	5.70730E-001	1.45572E-006	0.00000E+000	5.70000E-001	1.45747E-003	7	...........	-327.66
	859	1.72	5.60758E-001	9.88989E-007	0.00000E+000	5.60000E-001	1.48850E-003	7	...........	-327.66
	860	1.722	5.50766E-001	5.91021E-007	0.00000E+000	5.50000E-001	1.45747E-003	7	...........	-327.66
	861	1.724	5.40782E-001	2.41576E-007	0.00000E+000	5.40000E-001	1.37988E-003	7	...........	-327.66
	862	1.726	5.30776E-001	-6.88452E-008	0.00000E+000	5.30000E-001	1.42643E-003	7	...........	-327.66
	863	1.728	5.20776E-001	-3.47107E-007	0.00000E+000	5.20000E-001	1.41264E-003	7	...........	-327.66
	864	1.73	5.10752E-001	-5.97572E-007	0.00000E+000	5.10000E-001	1.37815E-003	7	...........	-327.66
	865	1.732	5.00795E-001	-8.25897E-007	0.00000E+000	5.00000E-001	1.44195E-003	7	...........	-327.66
	866	1.734	4.90757E-001	-1.03465E-006	0.00000E+000	4.90000E-001	1.42643E-003	7	...........	-327.66
	867	1.736	4.80746E-001	-1.22600E-006	0.00000E+000	4.80000E-001	1.43333E-003	7	...........	-327.66
	868	1.738	4.70785E-001	-1.40139E-006	0.00000E+000	4.70000E-001	1.42988E-003	7	...........	-327.66
	869	1.74	4.60782E-001	-1.56446E-006	0.00000E+000	4.60000E-001	1.40402E-003	7	...........	-327.66
	870	1.742	4.50816E-001	-1.71441E-006	0.00000E+000	4.50000E-001	1.39367E-003	7	...........	-327.66
	871	1.744	4.40749E-001	-1.85493E-006	0.00000E+000	4.40000E-001	1.47988E-003	7	...........	-327.66
	872	1.746	4.30770E-001	-1.98338E-006	0.00000E+000	4.30000E-001	1.41781E-003	7	...........	-327.66
	873	1.748	4.20817E-001	-2.10385E-006	0.00000E+000	4.20000E-001	1.47643E-003	7	...........	-327.66
	874	1.75	4.10774E-001	-2.21622E-006	0.00000E+000	4.10000E-001	1.46609E-003	7	...........	-327.66
	875	1.752	4.00792E-001	-2.32193E-006	0.00000E+000	4.00000E-001	1.41264E-003	7	...........	-327.66
	876	1.754	3.90785E-001	-2.42056E-006	0.00000E+000	3.90000E-001	1.40919E-003	7	...........	-327.66
	877	1.756	3.80809E-001	-2.51270E-006	0.00000E+000	3.80000E-001	1.44022E-003	7	...........	-327.66
	878	1.758	3.70813E-001	-2.59897E-006	0.00000E+000	3.70000E-001	1.42988E-003	7	...........	-327.66
	879	1.76	3.60766E-001	-2.68229E-006	0.00000E+000	3.60000E-001	1.43678E-003	7	...........	-327.66
	880	1.762	3.50833E-001	-2.75926E-006	0.00000E+000	3.50000E-001	1.45402E-003	7	...........	-327.66
	881	1.764	3.40823E-001	-2.83108E-006	0.00000E+000	3.40000E-001	1.39540E-003	7	...........	-327.66
	882	1.766	3.30797E-001	-2.90042E-006	0.00000E+000	3.30000E-001	1.38333E-003	7	...........	-327.66
	883	1.768	3.20803E-001	-2.96650E-006	0.00000E+000	3.20000E-001	1.39367E-003	7	...........	-327.66
	884	1.77	3.10784E-001	-3.02775E-006	0.00000E+000	3.10000E-001	1.35747E-003	7	...........	-327.66
	885	1.772	3.00779E-001	-3.08827E-006	0.00000E+000	3.00000E-001	1.40919E-003	7	...........	-327.66
	886	1.774	2.90807E-001	-3.14370E-006	0.00000E+000	2.90000E-001	1.36609E-003	7	...........	-327.66
	887	1.776	2.80771E-001	-3.19822E-006	0.00000E+000	2.80000E-001	1.41264E-003	7	...........	-327.66
	888	1.778	2.70831E-001	-3.24962E-006	0.00000E+000	2.70000E-001	1.39540E-003	7	...........	-327.66
	889	1.78	2.60791E-001	-3.30060E-006	0.00000E+000	2.60000E-001	1.41609E-003	7	...........	-327.66
	890	1.782	2.50831E-001	-3.34710E-006	0.00000E+000	2.50000E-001	1.46264E-003	7	...........	-327.66
	891	1.784	2.40800E-001	-3.39363E-006	0.00000E+000	2.40000E-001	1.41953E-003	7	...........	-327.66
	892	1.786	2.30807E-001	-3.43736E-006	0.00000E+000	2.30000E-001	1.43678E-003	7	...........	-327.66
	893	1.788	2.20807E-001	-3.48169E-006	0.00000E+000	2.20000E-001	1.39540E-003	7	...........	-327.66
	894	1.79	2.10794E-001	-3.52271E-006	0.00000E+000	2.10000E-001	1.40229E-003	7	...........	-327.66
	895	1.792	2.00804E-001	-3.56253E-006	0.00000E+000	2.00000E-001	1.46264E-003	7	...........	-327.66
	896	1.794	1.90856E-001	-3.60250E-006	0.00000E+000	1.90000E-001	1.49540E-003	7	...........	-327.66
	897	1.796	1.80825E-001	-3.63988E-006	0.00000E+000	1.80000E-001	1.42815E-003	7	...........	-327.66
	898	1.798	1.70880E-001	-3.67675E-006	0.00000E+000	1.70000E-001	1.41953E-003	7	...........	-327.66
	899	1.8	1.60803E-001	-3.71208E-006	0.00000E+000	1.60000E-001	1.43333E-003	7	...........	-327.66
	900	1.802	1.50799E-001	-3.74628E-006	0.00000E+000	1.50000E-001	1.39540E-003	7	...........	-327.66