File: Test_Data_Files/20250424_M_CHI105_12,5umAu_E000_PBSarg_CV5000.DTA
EXPLAIN
TAG	CV
TITLE	LABEL	Cyclic Voltammetry	Test &Identifier
DATE	LABEL	4/24/2025	Date
TIME	LABEL	13:30:35	Time
NOTES	NOTES	3	&Notes...

PSTAT	PSTAT	IFC1010-32247	Potentiostat
VINIT	POTEN	0.00000E+000	T	Initial &E (V)
VLIMIT1	POTEN	-6.00000E-001	F	Scan Limit &1 (V)
VLIMIT2	POTEN	8.00000E-001	F	Scan Limit &2 (V)
VFINAL	POTEN	0.00000E+000	T	Final &E (V)
SCANRATE	QUANT	4.99999E+003	&Scan Rate (mV/s)
STEPSIZE	QUANT	1.00000E+001	St&ep Size (mV)
CYCLES	IQUANT	3	C&ycles (#)
IMODE	SELECTOR	1	I/E Range &Mode
IRANGE	QUANT	1.00000E-006	&Max Current (mA)
AREA	QUANT	1.00000E+000	Electrode &Area (cm^2)
ELECTRODETYPE	SELECTOR	0	Electrode Type
STRIPPING	TOGGLE	F	Used for Stripping
CONDIT	TWOPARAM	F	1.50000E+001	0.00000E+000	Conditionin&g	Time(s)	E(V)
DELAY	TWOPARAM	T	1.50000E+001	0.00000E+000	Init. De&lay	Time(s)	Stab.(mV/s)
EQDELAY	QUANT	0.00000E+000	Equil. &Time (s)
IRCOMP	SELECTOR	0	IRCom&p
PFCOR	QUANT	5.00000E+001	PF Corr. (ohm)
SAMPLINGMODE	SELECTOR	2	Sampling &Mode
OCVCURVE	TABLE	58
	Pt	T	Vf	Vm	Ach	Over	Temp
	#	s	V vs. Ref.	V	V	bits	deg C
	0	0.258333	7.69332E-001	7.69332E-001	0.00000E+000	...........	1367.65
	1	0.516667	7.69333E-001	7.69391E-001	0.00000E+000	...........	1367.41
	2	0.775	7.69340E-001	7.69443E-001	0.00000E+000	...........	1367.22
	3	1.03333	7.69363E-001	7.69683E-001	0.00000E+000	...........	1367.22
	4	1.29167	7.69417E-001	7.69800E-001	0.00000E+000	...........	1367.22
	5	1.55	7.69512E-001	7.69964E-001	0.00000E+000	...........	1367.57
	6	1.80833	7.69642E-001	7.70062E-001	0.00000E+000	...........	1367.57
	7	2.06667	7.69783E-001	7.70106E-001	0.00000E+000	...........	1367.57
	8	2.325	7.69913E-001	7.70135E-001	0.00000E+000	...........	1367.57
	9	2.58333	7.70015E-001	7.70171E-001	0.00000E+000	...........	1367.65
	10	2.84167	7.70087E-001	7.70280E-001	0.00000E+000	...........	1367.65
	11	3.1	7.70142E-001	7.70256E-001	0.00000E+000	...........	1367.65
	12	3.35833	7.70188E-001	7.70208E-001	0.00000E+000	...........	1367.65
	13	3.61667	7.70220E-001	7.70197E-001	0.00000E+000	...........	1367.65
	14	3.875	7.70232E-001	7.70266E-001	0.00000E+000	...........	1367.65
	15	4.13333	7.70235E-001	7.70439E-001	0.00000E+000	...........	1367.65
	16	4.39167	7.70258E-001	7.70571E-001	0.00000E+000	...........	1367.65
	17	4.65	7.70324E-001	7.70840E-001	0.00000E+000	...........	1367.65
	18	4.90833	7.70442E-001	7.71009E-001	0.00000E+000	...........	1367.65
	19	5.16667	7.70602E-001	7.71061E-001	0.00000E+000	...........	1367.65
	20	5.425	7.70775E-001	7.71176E-001	0.00000E+000	...........	1367.65
	21	5.68333	7.70931E-001	7.71280E-001	0.00000E+000	...........	1367.65
	22	5.94167	7.71059E-001	7.71312E-001	0.00000E+000	...........	1367.65
	23	6.2	7.71165E-001	7.71525E-001	0.00000E+000	...........	1367.65
	24	6.45833	7.71267E-001	7.71832E-001	0.00000E+000	...........	1367.65
	25	6.71667	7.71397E-001	7.72114E-001	0.00000E+000	...........	1367.65
	26	6.975	7.71579E-001	7.72341E-001	0.00000E+000	...........	1367.65
	27	7.23333	7.71808E-001	7.72522E-001	0.00000E+000	...........	1367.65
	28	7.49167	7.72053E-001	7.72676E-001	0.00000E+000	...........	1367.65
	29	7.75	7.72282E-001	7.72813E-001	0.00000E+000	...........	1367.65
	30	8.00833	7.72483E-001	7.73001E-001	0.00000E+000	...........	1367.65
	31	8.26667	7.72656E-001	7.73044E-001	0.00000E+000	...........	1367.65
	32	8.525	7.72807E-001	7.73114E-001	0.00000E+000	...........	1367.47
	33	8.78333	7.72932E-001	7.73198E-001	0.00000E+000	...........	1367.40
	34	9.04167	7.73033E-001	7.73263E-001	0.00000E+000	...........	1367.40
	35	9.3	7.73114E-001	7.73280E-001	0.00000E+000	...........	1367.40
	36	9.5583	7.73181E-001	7.73277E-001	0.00000E+000	...........	1367.57
	37	9.8167	7.73230E-001	7.73237E-001	0.00000E+000	...........	1367.57
	38	10.075	7.73258E-001	7.73326E-001	0.00000E+000	...........	1367.57
	39	10.3333	7.73274E-001	7.73413E-001	0.00000E+000	...........	1367.57
	40	10.5917	7.73296E-001	7.73503E-001	0.00000E+000	...........	1367.65
	41	10.85	7.73343E-001	7.73645E-001	0.00000E+000	...........	1367.65
	42	11.1083	7.73415E-001	7.73655E-001	0.00000E+000	...........	1367.65
	43	11.3667	7.73498E-001	7.73558E-001	0.00000E+000	...........	1367.65
	44	11.625	7.73563E-001	7.73480E-001	0.00000E+000	...........	1367.65
	45	11.8833	7.73584E-001	7.73458E-001	0.00000E+000	...........	1367.65
	46	12.1417	7.73560E-001	7.73370E-001	0.00000E+000	...........	1367.65
	47	12.4	7.73512E-001	7.73470E-001	0.00000E+000	...........	1367.65
	48	12.6583	7.73469E-001	7.73546E-001	0.00000E+000	...........	1367.65
	49	12.9167	7.73456E-001	7.73643E-001	0.00000E+000	...........	1367.65
	50	13.175	7.73484E-001	7.73712E-001	0.00000E+000	...........	1367.65
	51	13.4333	7.73546E-001	7.73806E-001	0.00000E+000	...........	1367.65
	52	13.6917	7.73621E-001	7.73704E-001	0.00000E+000	...........	1367.65
	53	13.95	7.73688E-001	7.73780E-001	0.00000E+000	...........	1367.65
	54	14.2083	7.73731E-001	7.73787E-001	0.00000E+000	...........	1367.65
	55	14.4667	7.73756E-001	7.73889E-001	0.00000E+000	...........	1367.65
	56	14.725	7.73785E-001	7.74128E-001	0.00000E+000	...........	1367.65
	57	14.9833	7.73843E-001	7.74207E-001	0.00000E+000	...........	1367.65
EOC	QUANT	0.7738429	Open Circuit (V)
PSTATMODEL	IQUANT	64	Pstat Model
PSTATSECTION	LABEL	IFC1010-32247	Pstat Section
PSTATSERIALNO	LABEL	32247	Pstat Serial Number
CTRLMODE	IQUANT	1	Control Mode
ELECTROMETER	IQUANT	0	RE=0 or CS=1
IESTAB	IQUANT	2	I/E Stability
CASPEED	IQUANT	4	Control Amp Speed
CONVENTION	IQUANT	1	Current Convention
ICHRANGE	IQUANT	2	Ich Range
ICHRANGEMODE	TOGGLE	F	Ich Auto Range
ICHOFFSETENABLE	TOGGLE	F	Ich Offset Enable
ICHOFFSET	QUANT	0	Ich Offset (V)
ICHFILTER	IQUANT	3	Ich Filter
VCHRANGE	IQUANT	2	Vch Range
VCHRANGEMODE	TOGGLE	F	Vch Auto Range
VCHOFFSETENABLE	TOGGLE	F	Vch Offset Enable
VCHOFFSET	QUANT	0	Vch Offset (V)
VCHFILTER	IQUANT	3	Vch Filter
IERANGELOWERLIMIT	IQUANT	4	I/E Range Lower Limit
IERANGEMODE	TOGGLE	F	I/E AutoRange
IERANGE	IQUANT	4	I/E Range
ACHSELECT	IQUANT	0	Ach Select
ACHRANGE	IQUANT	2	Ach Range
ACHOFFSETENABLE	TOGGLE	F	Ach Offset Enable
ACHOFFSET	QUANT	0	Ach Offset (V)
ACHFILTER	IQUANT	1	Ach Filter
SENSECABLEID	IQUANT	14	Sense Cable ID
PWRCABLEID	IQUANT	14	Power Cable ID
DCCALDATE	LABEL	11/18/2024	DC Calibration Date
ACCALDATE	LABEL	4/18/2022	AC Calibration Date
FRAMEWORKVERSION	LABEL	7.10.3	Framework Version
INSTRUMENTVERSION	LABEL	4.91	Instrument Version
COMMVERSION	LABEL	3.10	Communications Version
CPUPLDVERSION	LABEL	2.22	CPU PLD Version
CTRLPLDVERSION	LABEL	0.00	CTRL PLD Version
PSTATPLDVERSION	LABEL	0.00	PSTAT PLD Version
CURVE1	TABLE
	Pt	T	Vf	Im	Vu	Sig	Ach	IERange	Over	Temp
	#	s	V vs. Ref.	A	V	V	V	#	bits	deg C
	0	0.002	7.73929E-001	-1.58098E-012	0.00000E+000	7.73851E-001	0.00000E+000	4	...........	1367.57
	3	0.008	7.45125E-001	-4.75329E-011	0.00000E+000	7.43859E-001	0.00000E+000	4	...........	1367.57
	6	0.014	7.15133E-001	-9.90853E-011	0.00000E+000	7.13866E-001	0.00000E+000	4	...........	1367.57
	9	0.02	6.85071E-001	-1.61757E-010	0.00000E+000	6.83824E-001	0.00000E+000	4	...........	1367.57
	12	0.026	6.55082E-001	-2.40831E-010	0.00000E+000	6.53832E-001	0.00000E+000	4	...........	1367.57
	15	0.032	6.25092E-001	-3.27273E-010	0.00000E+000	6.23839E-001	0.00000E+000	4	...........	1367.57
	18	0.038	5.95101E-001	-4.11641E-010	0.00000E+000	5.93847E-001	0.00000E+000	4	...........	1367.57
	21	0.044	5.65131E-001	-4.90729E-010	0.00000E+000	5.63855E-001	0.00000E+000	4	...........	1367.57
	24	0.05	5.35121E-001	-5.63737E-010	0.00000E+000	5.33862E-001	0.00000E+000	4	...........	1367.57
	27	0.056	5.05081E-001	-6.33497E-010	0.00000E+000	5.03820E-001	0.00000E+000	4	...........	1367.57
	30	0.062	4.75068E-001	-7.03933E-010	0.00000E+000	4.73828E-001	0.00000E+000	4	...........	1367.57
	33	0.068	4.45062E-001	-7.78355E-010	0.00000E+000	4.43835E-001	0.00000E+000	4	...........	1367.57
	36	0.074	4.15064E-001	-8.55942E-010	0.00000E+000	4.13843E-001	0.00000E+000	4	...........	1367.57
	39	0.08	3.85066E-001	-9.37576E-010	0.00000E+000	3.83851E-001	0.00000E+000	4	...........	1367.57
	42	0.086	3.55065E-001	-1.02275E-009	0.00000E+000	3.53858E-001	0.00000E+000	4	...........	1367.57
	45	0.092	3.25074E-001	-1.11098E-009	0.00000E+000	3.23866E-001	0.00000E+000	4	...........	1367.57
	48	0.098	2.95041E-001	-1.19750E-009	0.00000E+000	2.93824E-001	0.00000E+000	4	...........	1367.57
	51	0.104	2.65029E-001	-1.27464E-009	0.00000E+000	2.63831E-001	0.00000E+000	4	...........	1367.57
	54	0.11	2.35049E-001	-1.33853E-009	0.00000E+000	2.33839E-001	0.00000E+000	4	...........	1367.57
	57	0.116	2.05045E-001	-1.38829E-009	0.00000E+000	2.03847E-001	0.00000E+000	4	...........	1367.57
	60	0.122	1.75062E-001	-1.42322E-009	0.00000E+000	1.73854E-001	0.00000E+000	4	...........	1367.57
	63	0.128	1.45063E-001	-1.44404E-009	0.00000E+000	1.43862E-001	0.00000E+000	4	...........	1367.57
	66	0.134	1.15015E-001	-1.45176E-009	0.00000E+000	1.13820E-001	0.00000E+000	4	...........	1367.57
	69	0.14	8.50310E-002	-1.45173E-009	0.00000E+000	8.38275E-002	0.00000E+000	4	...........	1367.57
	72	0.146	5.50304E-002	-1.44099E-009	0.00000E+000	5.38352E-002	0.00000E+000	4	...........	1367.57
	75	0.152	2.50231E-002	-1.42440E-009	0.00000E+000	2.38429E-002	0.00000E+000	4	...........	1367.57
	78	0.158	-4.96821E-003	-1.40251E-009	0.00000E+000	-6.14946E-003	0.00000E+000	4	...........	1367.57
	81	0.164	-3.49925E-002	-1.37985E-009	0.00000E+000	-3.61418E-002	0.00000E+000	4	...........	1367.57
	84	0.17	-6.49770E-002	-1.36013E-009	0.00000E+000	-6.61341E-002	0.00000E+000	4	...........	1367.57
	87	0.176	-9.50166E-002	-1.34547E-009	0.00000E+000	-9.61764E-002	0.00000E+000	4	...........	1367.57
	90	0.182	-1.24990E-001	-1.33816E-009	0.00000E+000	-1.26169E-001	0.00000E+000	4	...........	1367.57
	93	0.188	-1.54999E-001	-1.34020E-009	0.00000E+000	-1.56161E-001	0.00000E+000	4	...........	1367.57
	96	0.194	-1.84989E-001	-1.35053E-009	0.00000E+000	-1.86153E-001	0.00000E+000	4	...........	1367.57
	99	0.2	-2.14973E-001	-1.37161E-009	0.00000E+000	-2.16146E-001	0.00000E+000	4	...........	1367.57
	102	0.206	-2.44987E-001	-1.40223E-009	0.00000E+000	-2.46138E-001	0.00000E+000	4	...........	1367.57
	105	0.212	-2.74968E-001	-1.43795E-009	0.00000E+000	-2.76130E-001	0.00000E+000	4	...........	1367.57
	108	0.218	-3.05010E-001	-1.47637E-009	0.00000E+000	-3.06173E-001	0.00000E+000	4	...........	1367.57
	111	0.224	-3.34996E-001	-1.51165E-009	0.00000E+000	-3.36165E-001	0.00000E+000	4	...........	1367.57
	114	0.23	-3.64990E-001	-1.53941E-009	0.00000E+000	-3.66157E-001	0.00000E+000	4	...........	1367.57
	117	0.236	-3.94965E-001	-1.55744E-009	0.00000E+000	-3.96150E-001	0.00000E+000	4	...........	1367.57
	120	0.242	-4.24980E-001	-1.56203E-009	0.00000E+000	-4.26142E-001	0.00000E+000	4	...........	1367.57
	123	0.248	-4.54985E-001	-1.54989E-009	0.00000E+000	-4.56134E-001	0.00000E+000	4	...........	1367.57
	126	0.254	-4.85014E-001	-1.52176E-009	0.00000E+000	-4.86177E-001	0.00000E+000	4	...........	1367.57
	129	0.26	-5.14998E-001	-1.48220E-009	0.00000E+000	-5.16169E-001	0.00000E+000	4	...........	1367.57
	132	0.266	-5.44998E-001	-1.43769E-009	0.00000E+000	-5.46161E-001	0.00000E+000	4	...........	1367.57
	135	0.272	-5.74967E-001	-1.39145E-009	0.00000E+000	-5.76154E-001	0.00000E+000	4	...........	1367.57
	138	0.278	-5.87316E-001	-1.30714E-009	0.00000E+000	-5.86151E-001	0.00000E+000	4	...........	1367.57
	141	0.284	-5.57339E-001	-1.10144E-009	0.00000E+000	-5.56159E-001	0.00000E+000	4	...........	1367.57
	144	0.29	-5.27332E-001	-9.05531E-010	0.00000E+000	-5.26166E-001	0.00000E+000	4	...........	1367.57
	147	0.296	-4.97350E-001	-7.21995E-010	0.00000E+000	-4.96174E-001	0.00000E+000	4	...........	1367.57
	150	0.302	-4.67330E-001	-5.52505E-010	0.00000E+000	-4.66132E-001	0.00000E+000	4	...........	1367.57
	153	0.308	-4.37336E-001	-3.97553E-010	0.00000E+000	-4.36139E-001	0.00000E+000	4	...........	1367.57
	156	0.314	-4.07311E-001	-2.55856E-010	0.00000E+000	-4.06147E-001	0.00000E+000	4	...........	1367.57
	159	0.32	-3.77317E-001	-1.24734E-010	0.00000E+000	-3.76155E-001	0.00000E+000	4	...........	1367.57
	162	0.326	-3.47341E-001	-3.61214E-012	0.00000E+000	-3.46162E-001	0.00000E+000	4	...........	1367.57
	165	0.332	-3.17325E-001	1.08348E-010	0.00000E+000	-3.16170E-001	0.00000E+000	4	...........	1367.57
	168	0.338	-2.87342E-001	2.11011E-010	0.00000E+000	-2.86178E-001	0.00000E+000	4	...........	1367.57
	171	0.344	-2.57310E-001	3.03649E-010	0.00000E+000	-2.56135E-001	0.00000E+000	4	...........	1367.57
	174	0.35	-2.27299E-001	3.84983E-010	0.00000E+000	-2.26143E-001	0.00000E+000	4	...........	1367.57
	177	0.356	-1.97309E-001	4.54675E-010	0.00000E+000	-1.96151E-001	0.00000E+000	4	...........	1367.57
	180	0.362	-1.67305E-001	5.13085E-010	0.00000E+000	-1.66158E-001	0.00000E+000	4	...........	1367.57
	183	0.368	-1.37331E-001	5.59998E-010	0.00000E+000	-1.36166E-001	0.00000E+000	4	...........	1367.57
	186	0.374	-1.07330E-001	5.97488E-010	0.00000E+000	-1.06174E-001	0.00000E+000	4	...........	1367.57
	189	0.38	-7.72965E-002	6.27788E-010	0.00000E+000	-7.61315E-002	0.00000E+000	4	...........	1367.57
	192	0.386	-4.72883E-002	6.51709E-010	0.00000E+000	-4.61392E-002	0.00000E+000	4	...........	1367.57
	195	0.392	-1.73123E-002	6.71947E-010	0.00000E+000	-1.61469E-002	0.00000E+000	4	...........	1367.57
	198	0.398	1.27112E-002	6.89046E-010	0.00000E+000	1.38454E-002	0.00000E+000	4	...........	1367.57
	201	0.404	4.26999E-002	7.07414E-010	0.00000E+000	4.38378E-002	0.00000E+000	4	...........	1367.57
	204	0.41	7.27030E-002	7.29236E-010	0.00000E+000	7.38301E-002	0.00000E+000	4	...........	1367.57
	207	0.416	1.02693E-001	7.54077E-010	0.00000E+000	1.03822E-001	0.00000E+000	4	...........	1367.57
	210	0.422	1.32734E-001	7.84264E-010	0.00000E+000	1.33865E-001	0.00000E+000	4	...........	1367.57
	213	0.428	1.62711E-001	8.20318E-010	0.00000E+000	1.63857E-001	0.00000E+000	4	...........	1367.57
	216	0.434	1.92727E-001	8.63077E-010	0.00000E+000	1.93849E-001	0.00000E+000	4	...........	1367.57
	219	0.44	2.22707E-001	9.15494E-010	0.00000E+000	2.23842E-001	0.00000E+000	4	...........	1367.57
	222	0.446	2.52685E-001	9.86375E-010	0.00000E+000	2.53834E-001	0.00000E+000	4	...........	1367.57
	225	0.452	2.82694E-001	1.06779E-009	0.00000E+000	2.83826E-001	0.00000E+000	4	...........	1367.57
	228	0.458	3.12729E-001	1.14054E-009	0.00000E+000	3.13869E-001	0.00000E+000	4	...........	1367.57
	231	0.464	3.42719E-001	1.20448E-009	0.00000E+000	3.43861E-001	0.00000E+000	4	...........	1367.57
	234	0.47	3.72727E-001	1.25616E-009	0.00000E+000	3.73853E-001	0.00000E+000	4	...........	1367.57
	237	0.476	4.02726E-001	1.29581E-009	0.00000E+000	4.03846E-001	0.00000E+000	4	...........	1367.57
	240	0.482	4.32722E-001	1.32229E-009	0.00000E+000	4.33838E-001	0.00000E+000	4	...........	1367.57
	243	0.488	4.62717E-001	1.33262E-009	0.00000E+000	4.63830E-001	0.00000E+000	4	...........	1367.57
	246	0.494	4.92718E-001	1.32558E-009	0.00000E+000	4.93823E-001	0.00000E+000	4	...........	1367.57
	249	0.5	5.22752E-001	1.30513E-009	0.00000E+000	5.23865E-001	0.00000E+000	4	...........	1367.57
	252	0.506	5.52762E-001	1.27728E-009	0.00000E+000	5.53857E-001	0.00000E+000	4	...........	1367.57
	255	0.512	5.82758E-001	1.24619E-009	0.00000E+000	5.83850E-001	0.00000E+000	4	...........	1367.57
	258	0.518	6.12747E-001	1.20982E-009	0.00000E+000	6.13842E-001	0.00000E+000	4	...........	1367.57
	261	0.524	6.42745E-001	1.17438E-009	0.00000E+000	6.43834E-001	0.00000E+000	4	...........	1367.57
	264	0.53	6.72746E-001	1.13862E-009	0.00000E+000	6.73826E-001	0.00000E+000	4	...........	1367.57
	267	0.536	7.02747E-001	1.09811E-009	0.00000E+000	7.03819E-001	0.00000E+000	4	...........	1367.57
	270	0.542	7.32784E-001	1.05585E-009	0.00000E+000	7.33861E-001	0.00000E+000	4	...........	1367.57
	273	0.548	7.62773E-001	1.01639E-009	0.00000E+000	7.63853E-001	0.00000E+000	4	...........	1367.57
	276	0.554	7.92776E-001	9.84038E-010	0.00000E+000	7.93846E-001	0.00000E+000	4	...........	1367.57
	277	0.556	8.02755E-001	9.75995E-010	0.00000E+000	8.03843E-001	0.00000E+000	4	...........	1367.57
CURVE2	TABLE
	Pt	T	Vf	Im	Vu	Sig	Ach	IERange	Over	Temp
	#	s	V vs. Ref.	A	V	V	V	#	bits	deg C
	278	0.558	7.91707E-001	9.16635E-010	0.00000E+000	7.89997E-001	0.00000E+000	4	...........	1367.57
	281	0.564	7.61270E-001	7.19114E-010	0.00000E+000	7.60004E-001	0.00000E+000	4	...........	1367.57
	284	0.57	7.31286E-001	5.29989E-010	0.00000E+000	7.30012E-001	0.00000E+000	4	...........	1367.57
	287	0.576	7.01288E-001	3.52881E-010	0.00000E+000	7.00020E-001	0.00000E+000	4	...........	1367.57
	290	0.582	6.71233E-001	1.85705E-010	0.00000E+000	6.69977E-001	0.00000E+000	4	...........	1367.57
	293	0.588	6.41246E-001	2.74106E-011	0.00000E+000	6.39985E-001	0.00000E+000	4	...........	1367.57
	296	0.594	6.11251E-001	-1.15649E-010	0.00000E+000	6.09993E-001	0.00000E+000	4	...........	1367.57
	299	0.6	5.81257E-001	-2.40318E-010	0.00000E+000	5.80001E-001	0.00000E+000	4	...........	1367.57
	302	0.606	5.51259E-001	-3.51902E-010	0.00000E+000	5.50008E-001	0.00000E+000	4	...........	1367.57
	305	0.612	5.21250E-001	-4.55737E-010	0.00000E+000	5.20016E-001	0.00000E+000	4	...........	1367.57
	308	0.618	4.91290E-001	-5.56757E-010	0.00000E+000	4.90024E-001	0.00000E+000	4	...........	1367.57
	311	0.624	4.61223E-001	-6.58834E-010	0.00000E+000	4.59981E-001	0.00000E+000	4	...........	1367.57
	314	0.63	4.31218E-001	-7.64313E-010	0.00000E+000	4.29989E-001	0.00000E+000	4	...........	1367.57
[...]
	591	1.184	4.61217E-001	-6.43695E-010	0.00000E+000	4.59981E-001	0.00000E+000	4	...........	1367.57
	594	1.19	4.31234E-001	-7.51228E-010	0.00000E+000	4.29989E-001	0.00000E+000	4	...........	1367.57
	597	1.196	4.01234E-001	-8.59732E-010	0.00000E+000	3.99997E-001	0.00000E+000	4	...........	1367.57
	600	1.202	3.71227E-001	-9.62149E-010	0.00000E+000	3.70004E-001	0.00000E+000	4	...........	1367.57
	603	1.208	3.41246E-001	-1.04873E-009	0.00000E+000	3.40012E-001	0.00000E+000	4	...........	1367.57
	606	1.214	3.11258E-001	-1.11897E-009	0.00000E+000	3.10020E-001	0.00000E+000	4	...........	1367.57
	609	1.22	2.81207E-001	-1.17541E-009	0.00000E+000	2.79977E-001	0.00000E+000	4	...........	1367.57
	612	1.226	2.51194E-001	-1.21582E-009	0.00000E+000	2.49985E-001	0.00000E+000	4	...........	1367.57
	615	1.232	2.21211E-001	-1.24121E-009	0.00000E+000	2.19993E-001	0.00000E+000	4	...........	1367.57
	618	1.238	1.91224E-001	-1.25347E-009	0.00000E+000	1.90000E-001	0.00000E+000	4	...........	1367.57
	621	1.244	1.61243E-001	-1.25247E-009	0.00000E+000	1.60008E-001	0.00000E+000	4	...........	1367.57
	624	1.25	1.31266E-001	-1.24300E-009	0.00000E+000	1.30016E-001	0.00000E+000	4	...........	1367.57
	627	1.256	1.01235E-001	-1.22689E-009	0.00000E+000	1.00023E-001	0.00000E+000	4	...........	1367.57
	630	1.262	7.12069E-002	-1.20583E-009	0.00000E+000	6.99811E-002	0.00000E+000	4	...........	1367.57
	633	1.268	4.12054E-002	-1.18319E-009	0.00000E+000	3.99887E-002	0.00000E+000	4	...........	1367.57
	636	1.274	1.11955E-002	-1.16079E-009	0.00000E+000	9.99641E-003	0.00000E+000	4	...........	1367.57
	639	1.28	-1.88118E-002	-1.14131E-009	0.00000E+000	-1.99959E-002	0.00000E+000	4	...........	1367.57
	642	1.286	-4.87963E-002	-1.12743E-009	0.00000E+000	-4.99882E-002	0.00000E+000	4	...........	1367.57
	645	1.292	-7.87859E-002	-1.11960E-009	0.00000E+000	-7.99806E-002	0.00000E+000	4	...........	1367.57
	648	1.298	-1.08818E-001	-1.12087E-009	0.00000E+000	-1.10023E-001	0.00000E+000	4	...........	1367.57
	651	1.304	-1.38812E-001	-1.12959E-009	0.00000E+000	-1.40015E-001	0.00000E+000	4	...........	1367.57
	654	1.31	-1.68809E-001	-1.14510E-009	0.00000E+000	-1.70007E-001	0.00000E+000	4	...........	1367.57
	657	1.316	-1.98794E-001	-1.16877E-009	0.00000E+000	-2.00000E-001	0.00000E+000	4	...........	1367.57
	660	1.322	-2.28806E-001	-1.19669E-009	0.00000E+000	-2.29992E-001	0.00000E+000	4	...........	1367.57
	663	1.328	-2.58802E-001	-1.22744E-009	0.00000E+000	-2.59984E-001	0.00000E+000	4	...........	1367.57
	666	1.334	-2.88806E-001	-1.26018E-009	0.00000E+000	-2.89977E-001	0.00000E+000	4	...........	1367.57
	669	1.34	-3.18834E-001	-1.28940E-009	0.00000E+000	-3.20019E-001	0.00000E+000	4	...........	1367.57
	672	1.346	-3.48843E-001	-1.31164E-009	0.00000E+000	-3.50011E-001	0.00000E+000	4	...........	1367.57
	675	1.352	-3.78835E-001	-1.32700E-009	0.00000E+000	-3.80004E-001	0.00000E+000	4	...........	1367.57
	678	1.358	-4.08848E-001	-1.33669E-009	0.00000E+000	-4.09996E-001	0.00000E+000	4	...........	1367.57
	681	1.364	-4.38844E-001	-1.33264E-009	0.00000E+000	-4.39988E-001	0.00000E+000	4	...........	1367.57
	684	1.37	-4.68829E-001	-1.31964E-009	0.00000E+000	-4.69981E-001	0.00000E+000	4	...........	1367.57
	687	1.376	-4.98836E-001	-1.29988E-009	0.00000E+000	-4.99973E-001	0.00000E+000	4	...........	1367.57
	690	1.382	-5.28834E-001	-1.27443E-009	0.00000E+000	-5.30015E-001	0.00000E+000	4	...........	1367.57
	693	1.388	-5.58840E-001	-1.24576E-009	0.00000E+000	-5.60008E-001	0.00000E+000	4	...........	1367.57
	696	1.394	-5.88838E-001	-1.21509E-009	0.00000E+000	-5.90000E-001	0.00000E+000	4	...........	1367.57
	699	1.4	-5.81169E-001	-1.09057E-009	0.00000E+000	-5.80003E-001	0.00000E+000	4	...........	1367.57
	702	1.406	-5.51183E-001	-9.08701E-010	0.00000E+000	-5.50010E-001	0.00000E+000	4	...........	1367.57
	705	1.412	-5.21174E-001	-7.35041E-010	0.00000E+000	-5.20018E-001	0.00000E+000	4	...........	1367.57
	708	1.418	-4.91155E-001	-5.79638E-010	0.00000E+000	-4.89976E-001	0.00000E+000	4	...........	1367.57
	711	1.424	-4.61176E-001	-4.27244E-010	0.00000E+000	-4.59983E-001	0.00000E+000	4	...........	1367.57
	714	1.43	-4.31181E-001	-2.85536E-010	0.00000E+000	-4.29991E-001	0.00000E+000	4	...........	1367.57
	717	1.436	-4.01190E-001	-1.54862E-010	0.00000E+000	-3.99999E-001	0.00000E+000	4	...........	1367.57
	720	1.442	-3.71192E-001	-3.33997E-011	0.00000E+000	-3.70006E-001	0.00000E+000	4	...........	1367.57
	723	1.448	-3.41190E-001	7.92123E-011	0.00000E+000	-3.40014E-001	0.00000E+000	4	...........	1367.57
	726	1.454	-3.11199E-001	1.82544E-010	0.00000E+000	-3.10022E-001	0.00000E+000	4	...........	1367.57
	729	1.46	-2.81151E-001	2.78077E-010	0.00000E+000	-2.79979E-001	0.00000E+000	4	...........	1367.57
	732	1.466	-2.51169E-001	3.64700E-010	0.00000E+000	-2.49987E-001	0.00000E+000	4	...........	1367.57
	735	1.472	-2.21179E-001	4.41201E-010	0.00000E+000	-2.19995E-001	0.00000E+000	4	...........	1367.57
	738	1.478	-1.91178E-001	5.07148E-010	0.00000E+000	-1.90002E-001	0.00000E+000	4	...........	1367.57
	741	1.484	-1.61183E-001	5.62170E-010	0.00000E+000	-1.60010E-001	0.00000E+000	4	...........	1367.57
	744	1.49	-1.31203E-001	6.06678E-010	0.00000E+000	-1.30018E-001	0.00000E+000	4	...........	1367.57
	747	1.496	-1.01157E-001	6.42578E-010	0.00000E+000	-9.99754E-002	0.00000E+000	4	...........	1367.57
	750	1.502	-7.11524E-002	6.71100E-010	0.00000E+000	-6.99831E-002	0.00000E+000	4	...........	1367.57
	753	1.508	-4.11603E-002	6.94035E-010	0.00000E+000	-3.99908E-002	0.00000E+000	4	...........	1367.57
	756	1.514	-1.11708E-002	7.14120E-010	0.00000E+000	-9.99847E-003	0.00000E+000	4	...........	1367.57
	759	1.52	1.88442E-002	7.32596E-010	0.00000E+000	1.99939E-002	0.00000E+000	4	...........	1367.57
	762	1.526	4.88397E-002	7.52664E-010	0.00000E+000	4.99862E-002	0.00000E+000	4	...........	1367.57
	765	1.532	7.88412E-002	7.76601E-010	0.00000E+000	7.99785E-002	0.00000E+000	4	...........	1367.57
	768	1.538	1.08887E-001	8.03819E-010	0.00000E+000	1.10021E-001	0.00000E+000	4	...........	1367.57
	771	1.544	1.38870E-001	8.35355E-010	0.00000E+000	1.40013E-001	0.00000E+000	4	...........	1367.57
	774	1.55	1.68870E-001	8.73400E-010	0.00000E+000	1.70005E-001	0.00000E+000	4	...........	1367.57
	777	1.556	1.98854E-001	9.17287E-010	0.00000E+000	1.99998E-001	0.00000E+000	4	...........	1367.57
	780	1.562	2.28871E-001	9.71347E-010	0.00000E+000	2.29990E-001	0.00000E+000	4	...........	1367.57
	783	1.568	2.58874E-001	1.04083E-009	0.00000E+000	2.59982E-001	0.00000E+000	4	...........	1367.57
	786	1.574	2.88910E-001	1.11764E-009	0.00000E+000	2.90025E-001	0.00000E+000	4	...........	1367.57
	789	1.58	3.18903E-001	1.18509E-009	0.00000E+000	3.20017E-001	0.00000E+000	4	...........	1367.57
	792	1.586	3.48903E-001	1.24447E-009	0.00000E+000	3.50009E-001	0.00000E+000	4	...........	1367.57
	795	1.592	3.78898E-001	1.29412E-009	0.00000E+000	3.80002E-001	0.00000E+000	4	...........	1367.57
	798	1.598	4.08898E-001	1.33254E-009	0.00000E+000	4.09994E-001	0.00000E+000	4	...........	1367.57
	801	1.604	4.38890E-001	1.35868E-009	0.00000E+000	4.39986E-001	0.00000E+000	4	...........	1367.57
	804	1.61	4.68883E-001	1.36845E-009	0.00000E+000	4.69979E-001	0.00000E+000	4	...........	1367.57
	807	1.616	4.98943E-001	1.36129E-009	0.00000E+000	5.00021E-001	0.00000E+000	4	...........	1367.57
	810	1.622	5.28925E-001	1.34115E-009	0.00000E+000	5.30013E-001	0.00000E+000	4	...........	1367.57
	813	1.628	5.58920E-001	1.31229E-009	0.00000E+000	5.60006E-001	0.00000E+000	4	...........	1367.57
	816	1.634	5.88930E-001	1.27770E-009	0.00000E+000	5.89998E-001	0.00000E+000	4	...........	1367.57
	819	1.64	6.18898E-001	1.24181E-009	0.00000E+000	6.19990E-001	0.00000E+000	4	...........	1367.57
	822	1.646	6.48905E-001	1.20808E-009	0.00000E+000	6.49983E-001	0.00000E+000	4	...........	1367.57
	825	1.652	6.78961E-001	1.17276E-009	0.00000E+000	6.80025E-001	0.00000E+000	4	...........	1367.57
	828	1.658	7.08956E-001	1.13454E-009	0.00000E+000	7.10017E-001	0.00000E+000	4	...........	1367.57
	831	1.664	7.38926E-001	1.09367E-009	0.00000E+000	7.40010E-001	0.00000E+000	4	...........	1367.57
	834	1.67	7.68938E-001	1.05554E-009	0.00000E+000	7.70002E-001	0.00000E+000	4	...........	1367.57
	837	1.676	7.98936E-001	1.02611E-009	0.00000E+000	7.99994E-001	0.00000E+000	4	...........	1367.57
CURVE4	TABLE
	Pt	T	Vf	Im	Vu	Sig	Ach	IERange	Over	Temp
	#	s	V vs. Ref.	A	V	V	V	#	bits	deg C
	838	1.678	7.91284E-001	9.73565E-010	0.00000E+000	7.89997E-001	0.00000E+000	4	...........	1367.57
	839	1.68	7.81271E-001	9.08114E-010	0.00000E+000	7.79999E-001	0.00000E+000	4	...........	1367.57
	840	1.682	7.71293E-001	8.41213E-010	0.00000E+000	7.70002E-001	0.00000E+000	4	...........	1367.57