File: Test_Data_Files/20250424_N_CHI105_12,5umAu_E000_PBSargCV50000.DTA
EXPLAIN
TAG	CV
TITLE	LABEL	Cyclic Voltammetry	Test &Identifier
DATE	LABEL	4/24/2025	Date
TIME	LABEL	13:31:45	Time
NOTES	NOTES	3	&Notes...

PSTAT	PSTAT	IFC1010-32247	Potentiostat
VINIT	POTEN	0.00000E+000	T	Initial &E (V)
VLIMIT1	POTEN	-6.00000E-001	F	Scan Limit &1 (V)
VLIMIT2	POTEN	8.00000E-001	F	Scan Limit &2 (V)
VFINAL	POTEN	0.00000E+000	T	Final &E (V)
SCANRATE	QUANT	4.99999E+004	&Scan Rate (mV/s)
STEPSIZE	QUANT	1.00000E+001	St&ep Size (mV)
CYCLES	IQUANT	3	C&ycles (#)
IMODE	SELECTOR	1	I/E Range &Mode
IRANGE	QUANT	1.00000E-005	&Max Current (mA)
AREA	QUANT	1.00000E+000	Electrode &Area (cm^2)
ELECTRODETYPE	SELECTOR	0	Electrode Type
STRIPPING	TOGGLE	F	Used for Stripping
CONDIT	TWOPARAM	F	1.50000E+001	0.00000E+000	Conditionin&g	Time(s)	E(V)
DELAY	TWOPARAM	T	1.50000E+001	0.00000E+000	Init. De&lay	Time(s)	Stab.(mV/s)
EQDELAY	QUANT	0.00000E+000	Equil. &Time (s)
IRCOMP	SELECTOR	0	IRCom&p
PFCOR	QUANT	5.00000E+001	PF Corr. (ohm)
SAMPLINGMODE	SELECTOR	2	Sampling &Mode
OCVCURVE	TABLE	58
	Pt	T	Vf	Vm	Ach	Over	Temp
	#	s	V vs. Ref.	V	V	bits	deg C
	0	0.258333	7.73084E-001	7.73084E-001	0.00000E+000	...........	1367.65
	1	0.516667	7.73085E-001	7.73137E-001	0.00000E+000	...........	1367.65
	2	0.775	7.73090E-001	7.73143E-001	0.00000E+000	...........	1367.65
	3	1.03333	7.73103E-001	7.73152E-001	0.00000E+000	...........	1367.65
	4	1.29167	7.73122E-001	7.73254E-001	0.00000E+000	...........	1367.65
	5	1.55	7.73149E-001	7.73347E-001	0.00000E+000	...........	1367.65
	6	1.80833	7.73192E-001	7.73380E-001	0.00000E+000	...........	1367.65
	7	2.06667	7.73252E-001	7.73515E-001	0.00000E+000	...........	1367.65
	8	2.325	7.73326E-001	7.73693E-001	0.00000E+000	...........	1367.65
	9	2.58333	7.73421E-001	7.73979E-001	0.00000E+000	...........	1367.65
	10	2.84167	7.73553E-001	7.74157E-001	0.00000E+000	...........	1367.65
	11	3.1	7.73726E-001	7.74352E-001	0.00000E+000	...........	1367.65
	12	3.35833	7.73924E-001	7.74505E-001	0.00000E+000	...........	1367.65
	13	3.61667	7.74124E-001	7.74573E-001	0.00000E+000	...........	1367.65
	14	3.875	7.74303E-001	7.74680E-001	0.00000E+000	...........	1367.65
	15	4.13333	7.74451E-001	7.74784E-001	0.00000E+000	...........	1367.65
	16	4.39167	7.74570E-001	7.74821E-001	0.00000E+000	...........	1367.65
	17	4.65	7.74668E-001	7.74833E-001	0.00000E+000	...........	1367.65
	18	4.90833	7.74745E-001	7.74876E-001	0.00000E+000	...........	1367.57
	19	5.16667	7.74799E-001	7.74835E-001	0.00000E+000	...........	1367.57
	20	5.425	7.74831E-001	7.74787E-001	0.00000E+000	...........	1367.57
	21	5.68333	7.74839E-001	7.74743E-001	0.00000E+000	...........	1367.45
	22	5.94167	7.74825E-001	7.74756E-001	0.00000E+000	...........	1367.40
	23	6.2	7.74798E-001	7.74738E-001	0.00000E+000	...........	1367.40
	24	6.45833	7.74773E-001	7.74783E-001	0.00000E+000	...........	1367.40
	25	6.71667	7.74760E-001	7.74819E-001	0.00000E+000	...........	1367.57
	26	6.975	7.74763E-001	7.74815E-001	0.00000E+000	...........	1367.57
	27	7.23333	7.74777E-001	7.74751E-001	0.00000E+000	...........	1367.57
	28	7.49167	7.74791E-001	7.74863E-001	0.00000E+000	...........	1367.57
	29	7.75	7.74803E-001	7.74970E-001	0.00000E+000	...........	1367.65
	30	8.00833	7.74829E-001	7.75143E-001	0.00000E+000	...........	1367.65
	31	8.26667	7.74892E-001	7.75369E-001	0.00000E+000	...........	1367.65
	32	8.525	7.75002E-001	7.75500E-001	0.00000E+000	...........	1367.65
	33	8.78333	7.75151E-001	7.75666E-001	0.00000E+000	...........	1367.65
	34	9.04167	7.75314E-001	7.75641E-001	0.00000E+000	...........	1367.65
	35	9.3	7.75459E-001	7.75523E-001	0.00000E+000	...........	1367.65
	36	9.5583	7.75551E-001	7.75392E-001	0.00000E+000	...........	1367.65
	37	9.8167	7.75566E-001	7.75316E-001	0.00000E+000	...........	1367.65
	38	10.075	7.75512E-001	7.75026E-001	0.00000E+000	...........	1367.65
	39	10.3333	7.75402E-001	7.74796E-001	0.00000E+000	...........	1367.65
	40	10.5917	7.75246E-001	7.74672E-001	0.00000E+000	...........	1367.65
	41	10.85	7.75063E-001	7.74683E-001	0.00000E+000	...........	1367.65
	42	11.1083	7.74889E-001	7.74604E-001	0.00000E+000	...........	1367.65
	43	11.3667	7.74759E-001	7.74618E-001	0.00000E+000	...........	1367.65
	44	11.625	7.74675E-001	7.74436E-001	0.00000E+000	...........	1367.65
	45	11.8833	7.74613E-001	7.74366E-001	0.00000E+000	...........	1367.65
	46	12.1417	7.74548E-001	7.74289E-001	0.00000E+000	...........	1367.65
	47	12.4	7.74467E-001	7.74118E-001	0.00000E+000	...........	1367.65
	48	12.6583	7.74368E-001	7.73831E-001	0.00000E+000	...........	1367.65
	49	12.9167	7.74240E-001	7.73660E-001	0.00000E+000	...........	1367.65
	50	13.175	7.74076E-001	7.73489E-001	0.00000E+000	...........	1367.65
	51	13.4333	7.73890E-001	7.73485E-001	0.00000E+000	...........	1367.65
	52	13.6917	7.73719E-001	7.73596E-001	0.00000E+000	...........	1367.50
	53	13.95	7.73602E-001	7.73610E-001	0.00000E+000	...........	1367.48
	54	14.2083	7.73559E-001	7.73823E-001	0.00000E+000	...........	1367.48
	55	14.4667	7.73589E-001	7.74069E-001	0.00000E+000	...........	1367.48
	56	14.725	7.73687E-001	7.74281E-001	0.00000E+000	...........	1367.57
	57	14.9833	7.73840E-001	7.74341E-001	0.00000E+000	...........	1367.57
EOC	QUANT	0.7738403	Open Circuit (V)
PSTATMODEL	IQUANT	64	Pstat Model
PSTATSECTION	LABEL	IFC1010-32247	Pstat Section
PSTATSERIALNO	LABEL	32247	Pstat Serial Number
CTRLMODE	IQUANT	1	Control Mode
ELECTROMETER	IQUANT	0	RE=0 or CS=1
IESTAB	IQUANT	2	I/E Stability
CASPEED	IQUANT	4	Control Amp Speed
CONVENTION	IQUANT	1	Current Convention
ICHRANGE	IQUANT	2	Ich Range
ICHRANGEMODE	TOGGLE	F	Ich Auto Range
ICHOFFSETENABLE	TOGGLE	F	Ich Offset Enable
ICHOFFSET	QUANT	0	Ich Offset (V)
ICHFILTER	IQUANT	2	Ich Filter
VCHRANGE	IQUANT	2	Vch Range
VCHRANGEMODE	TOGGLE	F	Vch Auto Range
VCHOFFSETENABLE	TOGGLE	F	Vch Offset Enable
VCHOFFSET	QUANT	0	Vch Offset (V)
VCHFILTER	IQUANT	2	Vch Filter
IERANGELOWERLIMIT	IQUANT	4	I/E Range Lower Limit
IERANGEMODE	TOGGLE	F	I/E AutoRange
IERANGE	IQUANT	5	I/E Range
ACHSELECT	IQUANT	0	Ach Select
ACHRANGE	IQUANT	2	Ach Range
ACHOFFSETENABLE	TOGGLE	F	Ach Offset Enable
ACHOFFSET	QUANT	0	Ach Offset (V)
ACHFILTER	IQUANT	1	Ach Filter
SENSECABLEID	IQUANT	14	Sense Cable ID
PWRCABLEID	IQUANT	14	Power Cable ID
DCCALDATE	LABEL	11/18/2024	DC Calibration Date
ACCALDATE	LABEL	4/18/2022	AC Calibration Date
FRAMEWORKVERSION	LABEL	7.10.3	Framework Version
INSTRUMENTVERSION	LABEL	4.91	Instrument Version
COMMVERSION	LABEL	3.10	Communications Version
CPUPLDVERSION	LABEL	2.22	CPU PLD Version
CTRLPLDVERSION	LABEL	0.00	CTRL PLD Version
PSTATPLDVERSION	LABEL	0.00	PSTAT PLD Version
CURVE1	TABLE
	Pt	T	Vf	Im	Vu	Sig	Ach	IERange	Over	Temp
	#	s	V vs. Ref.	A	V	V	V	#	bits	deg C
	0	0.0002	7.73931E-001	-5.80683E-013	0.00000E+000	7.73851E-001	0.00000E+000	5	...........	1367.65
	3	0.0008	7.44293E-001	-3.83030E-010	0.00000E+000	7.43859E-001	0.00000E+000	5	...........	1367.65
	6	0.0014	7.14235E-001	-7.77826E-010	0.00000E+000	7.13816E-001	0.00000E+000	5	...........	1367.65
	9	0.002	6.84247E-001	-1.21067E-009	0.00000E+000	6.83824E-001	0.00000E+000	5	...........	1367.65
	12	0.0026	6.54269E-001	-1.76765E-009	0.00000E+000	6.53832E-001	0.00000E+000	5	...........	1367.65
	15	0.0032	6.24261E-001	-2.49551E-009	0.00000E+000	6.23839E-001	0.00000E+000	5	...........	1367.65
	18	0.0038	5.94233E-001	-3.32849E-009	0.00000E+000	5.93847E-001	0.00000E+000	5	...........	1367.65
	21	0.0044	5.64295E-001	-4.13710E-009	0.00000E+000	5.63855E-001	0.00000E+000	5	...........	1367.65
	24	0.005	5.34287E-001	-4.89032E-009	0.00000E+000	5.33862E-001	0.00000E+000	5	...........	1367.65
	27	0.0056	5.04199E-001	-5.57779E-009	0.00000E+000	5.03820E-001	0.00000E+000	5	...........	1367.65
	30	0.0062	4.74241E-001	-6.23290E-009	0.00000E+000	4.73828E-001	0.00000E+000	5	...........	1367.65
	33	0.0068	4.44252E-001	-6.90168E-009	0.00000E+000	4.43835E-001	0.00000E+000	5	...........	1367.65
	36	0.0074	4.14214E-001	-7.60250E-009	0.00000E+000	4.13843E-001	0.00000E+000	5	...........	1367.65
	39	0.008	3.84256E-001	-8.33737E-009	0.00000E+000	3.83851E-001	0.00000E+000	5	...........	1367.65
	42	0.0086	3.54248E-001	-9.09759E-009	0.00000E+000	3.53858E-001	0.00000E+000	5	...........	1367.65
	45	0.0092	3.24210E-001	-9.87450E-009	0.00000E+000	3.23816E-001	0.00000E+000	5	...........	1367.65
	48	0.0098	2.94202E-001	-1.06287E-008	0.00000E+000	2.93824E-001	0.00000E+000	5	...........	1367.65
	51	0.0104	2.64194E-001	-1.13092E-008	0.00000E+000	2.63831E-001	0.00000E+000	5	...........	1367.65
	54	0.011	2.34246E-001	-1.18618E-008	0.00000E+000	2.33839E-001	0.00000E+000	5	...........	1367.65
	57	0.0116	2.04218E-001	-1.22656E-008	0.00000E+000	2.03847E-001	0.00000E+000	5	...........	1367.65
	60	0.0122	1.74240E-001	-1.25326E-008	0.00000E+000	1.73854E-001	0.00000E+000	5	...........	1367.65
	63	0.0128	1.44202E-001	-1.26798E-008	0.00000E+000	1.43862E-001	0.00000E+000	5	...........	1367.65
	66	0.0134	1.14194E-001	-1.27182E-008	0.00000E+000	1.13820E-001	0.00000E+000	5	...........	1367.65
	69	0.014	8.41655E-002	-1.26591E-008	0.00000E+000	8.38275E-002	0.00000E+000	5	...........	1367.65
	72	0.0146	5.41974E-002	-1.25249E-008	0.00000E+000	5.38352E-002	0.00000E+000	5	...........	1367.65
	75	0.0152	2.42293E-002	-1.23394E-008	0.00000E+000	2.38429E-002	0.00000E+000	5	...........	1367.65
	78	0.0158	-5.81877E-003	-1.21088E-008	0.00000E+000	-6.14946E-003	0.00000E+000	5	...........	1367.65
	81	0.0164	-3.57768E-002	-1.18672E-008	0.00000E+000	-3.61418E-002	0.00000E+000	5	...........	1367.65
	84	0.017	-6.58549E-002	-1.16436E-008	0.00000E+000	-6.61841E-002	0.00000E+000	5	...........	1367.65
	87	0.0176	-9.58430E-002	-1.14734E-008	0.00000E+000	-9.61764E-002	0.00000E+000	5	...........	1367.65
	90	0.0182	-1.25811E-001	-1.13836E-008	0.00000E+000	-1.26169E-001	0.00000E+000	5	...........	1367.65
	93	0.0188	-1.55819E-001	-1.13502E-008	0.00000E+000	-1.56161E-001	0.00000E+000	5	...........	1367.65
	96	0.0194	-1.85797E-001	-1.13559E-008	0.00000E+000	-1.86153E-001	0.00000E+000	5	...........	1367.65
	99	0.02	-2.15775E-001	-1.14183E-008	0.00000E+000	-2.16146E-001	0.00000E+000	5	...........	1367.65
	102	0.0206	-2.45783E-001	-1.15511E-008	0.00000E+000	-2.46138E-001	0.00000E+000	5	...........	1367.65
	105	0.0212	-2.75842E-001	-1.17597E-008	0.00000E+000	-2.76180E-001	0.00000E+000	5	...........	1367.65
	108	0.0218	-3.05820E-001	-1.20370E-008	0.00000E+000	-3.06173E-001	0.00000E+000	5	...........	1367.65
	111	0.0224	-3.35858E-001	-1.23698E-008	0.00000E+000	-3.36165E-001	0.00000E+000	5	...........	1367.65
	114	0.023	-3.65806E-001	-1.27095E-008	0.00000E+000	-3.66157E-001	0.00000E+000	5	...........	1367.65
	117	0.0236	-3.95784E-001	-1.30556E-008	0.00000E+000	-3.96150E-001	0.00000E+000	5	...........	1367.65
	120	0.0242	-4.25832E-001	-1.33022E-008	0.00000E+000	-4.26142E-001	0.00000E+000	5	...........	1367.65
	123	0.0248	-4.55860E-001	-1.34077E-008	0.00000E+000	-4.56184E-001	0.00000E+000	5	...........	1367.65
	126	0.0254	-4.85868E-001	-1.33820E-008	0.00000E+000	-4.86177E-001	0.00000E+000	5	...........	1367.65
	129	0.026	-5.15826E-001	-1.32081E-008	0.00000E+000	-5.16169E-001	0.00000E+000	5	...........	1367.65
	132	0.0266	-5.45824E-001	-1.29111E-008	0.00000E+000	-5.46161E-001	0.00000E+000	5	...........	1367.65
	135	0.0272	-5.75832E-001	-1.24969E-008	0.00000E+000	-5.76154E-001	0.00000E+000	5	...........	1367.65
	138	0.0278	-5.86485E-001	-1.14884E-008	0.00000E+000	-5.86151E-001	0.00000E+000	5	...........	1367.65
	141	0.0284	-5.56517E-001	-9.22641E-009	0.00000E+000	-5.56159E-001	0.00000E+000	5	...........	1367.65
	144	0.029	-5.26559E-001	-7.07088E-009	0.00000E+000	-5.26166E-001	0.00000E+000	5	...........	1367.65
	147	0.0296	-4.96551E-001	-5.09022E-009	0.00000E+000	-4.96174E-001	0.00000E+000	5	...........	1367.65
	150	0.0302	-4.66513E-001	-3.29345E-009	0.00000E+000	-4.66182E-001	0.00000E+000	5	...........	1367.65
	153	0.0308	-4.36555E-001	-1.67021E-009	0.00000E+000	-4.36139E-001	0.00000E+000	5	...........	1367.65
	156	0.0314	-4.06547E-001	-2.13164E-010	0.00000E+000	-4.06147E-001	0.00000E+000	5	...........	1367.65
	159	0.032	-3.76539E-001	1.08102E-009	0.00000E+000	-3.76155E-001	0.00000E+000	5	...........	1367.65
	162	0.0326	-3.46561E-001	2.22370E-009	0.00000E+000	-3.46162E-001	0.00000E+000	5	...........	1367.65
	165	0.0332	-3.16512E-001	3.23188E-009	0.00000E+000	-3.16170E-001	0.00000E+000	5	...........	1367.65
	168	0.0338	-2.86524E-001	4.11425E-009	0.00000E+000	-2.86178E-001	0.00000E+000	5	...........	1367.65
	171	0.0344	-2.56476E-001	4.88148E-009	0.00000E+000	-2.56135E-001	0.00000E+000	5	...........	1367.65
	174	0.035	-2.26468E-001	5.53325E-009	0.00000E+000	-2.26143E-001	0.00000E+000	5	...........	1367.65
	177	0.0356	-1.96530E-001	6.07221E-009	0.00000E+000	-1.96151E-001	0.00000E+000	5	...........	1367.65
	180	0.0362	-1.66502E-001	6.50873E-009	0.00000E+000	-1.66158E-001	0.00000E+000	5	...........	1367.65
	183	0.0368	-1.36514E-001	6.84879E-009	0.00000E+000	-1.36166E-001	0.00000E+000	5	...........	1367.65
	186	0.0374	-1.06526E-001	7.11277E-009	0.00000E+000	-1.06174E-001	0.00000E+000	5	...........	1367.65
	189	0.038	-7.65278E-002	7.31734E-009	0.00000E+000	-7.61815E-002	0.00000E+000	5	...........	1367.65
	192	0.0386	-4.64897E-002	7.48120E-009	0.00000E+000	-4.61392E-002	0.00000E+000	5	...........	1367.65
	195	0.0392	-1.65016E-002	7.62737E-009	0.00000E+000	-1.61469E-002	0.00000E+000	5	...........	1367.65
	198	0.0398	1.35064E-002	7.77888E-009	0.00000E+000	1.38454E-002	0.00000E+000	5	...........	1367.65
	201	0.0404	4.34945E-002	7.95309E-009	0.00000E+000	4.38378E-002	0.00000E+000	5	...........	1367.65
	204	0.041	7.34626E-002	8.16167E-009	0.00000E+000	7.38301E-002	0.00000E+000	5	...........	1367.65
	207	0.0416	1.03531E-001	8.41330E-009	0.00000E+000	1.03822E-001	0.00000E+000	5	...........	1367.65
	210	0.0422	1.33559E-001	8.70130E-009	0.00000E+000	1.33865E-001	0.00000E+000	5	...........	1367.65
	213	0.0428	1.63517E-001	9.02935E-009	0.00000E+000	1.63857E-001	0.00000E+000	5	...........	1367.65
	216	0.0434	1.93555E-001	9.40346E-009	0.00000E+000	1.93849E-001	0.00000E+000	5	...........	1367.65
	219	0.044	2.23493E-001	9.84297E-009	0.00000E+000	2.23842E-001	0.00000E+000	5	...........	1367.65
	222	0.0446	2.53491E-001	1.03819E-008	0.00000E+000	2.53834E-001	0.00000E+000	5	...........	1367.65
	225	0.0452	2.83509E-001	1.10254E-008	0.00000E+000	2.83826E-001	0.00000E+000	5	...........	1367.65
	228	0.0458	3.13527E-001	1.16748E-008	0.00000E+000	3.13819E-001	0.00000E+000	5	...........	1367.65
	231	0.0464	3.43545E-001	1.22094E-008	0.00000E+000	3.43861E-001	0.00000E+000	5	...........	1367.65
	234	0.047	3.73573E-001	1.25992E-008	0.00000E+000	3.73853E-001	0.00000E+000	5	...........	1367.65
	237	0.0476	4.03551E-001	1.28602E-008	0.00000E+000	4.03846E-001	0.00000E+000	5	...........	1367.65
	240	0.0482	4.33550E-001	1.29907E-008	0.00000E+000	4.33838E-001	0.00000E+000	5	...........	1367.65
	243	0.0488	4.63548E-001	1.29857E-008	0.00000E+000	4.63830E-001	0.00000E+000	5	...........	1367.65
	246	0.0494	4.93566E-001	1.28301E-008	0.00000E+000	4.93823E-001	0.00000E+000	5	...........	1367.65
	249	0.05	5.23574E-001	1.25502E-008	0.00000E+000	5.23865E-001	0.00000E+000	5	...........	1367.65
	252	0.0506	5.53572E-001	1.22118E-008	0.00000E+000	5.53857E-001	0.00000E+000	5	...........	1367.65
	255	0.0512	5.83540E-001	1.18243E-008	0.00000E+000	5.83850E-001	0.00000E+000	5	...........	1367.65
	258	0.0518	6.13548E-001	1.14265E-008	0.00000E+000	6.13842E-001	0.00000E+000	5	...........	1367.65
	261	0.0524	6.43586E-001	1.10254E-008	0.00000E+000	6.43834E-001	0.00000E+000	5	...........	1367.65
	264	0.053	6.73544E-001	1.06119E-008	0.00000E+000	6.73826E-001	0.00000E+000	5	...........	1367.65
	267	0.0536	7.03542E-001	1.01754E-008	0.00000E+000	7.03819E-001	0.00000E+000	5	...........	1367.65
	270	0.0542	7.33570E-001	9.73151E-009	0.00000E+000	7.33861E-001	0.00000E+000	5	...........	1367.65
	273	0.0548	7.63618E-001	9.30367E-009	0.00000E+000	7.63853E-001	0.00000E+000	5	...........	1367.65
	276	0.0554	7.93557E-001	8.91155E-009	0.00000E+000	7.93846E-001	0.00000E+000	5	...........	1367.65
	277	0.0556	8.03569E-001	8.79374E-009	0.00000E+000	8.03843E-001	0.00000E+000	5	...........	1367.65
CURVE2	TABLE
	Pt	T	Vf	Im	Vu	Sig	Ach	IERange	Over	Temp
	#	s	V vs. Ref.	A	V	V	V	#	bits	deg C
	278	0.0558	7.90546E-001	8.22574E-009	0.00000E+000	7.89997E-001	0.00000E+000	5	...........	1367.65
	281	0.0564	7.60468E-001	6.48637E-009	0.00000E+000	7.60004E-001	0.00000E+000	5	...........	1367.65
	284	0.057	7.30449E-001	4.84344E-009	0.00000E+000	7.30012E-001	0.00000E+000	5	...........	1367.65
	287	0.0576	7.00451E-001	3.31731E-009	0.00000E+000	7.00020E-001	0.00000E+000	5	...........	1367.65
	290	0.0582	6.70373E-001	1.86995E-009	0.00000E+000	6.69977E-001	0.00000E+000	5	...........	1367.65
	293	0.0588	6.40395E-001	4.81318E-010	0.00000E+000	6.39985E-001	0.00000E+000	5	...........	1367.65
	296	0.0594	6.10427E-001	-8.39232E-010	0.00000E+000	6.09993E-001	0.00000E+000	5	...........	1367.65
	299	0.06	5.80409E-001	-2.03463E-009	0.00000E+000	5.80001E-001	0.00000E+000	5	...........	1367.65
	302	0.0606	5.50431E-001	-3.08420E-009	0.00000E+000	5.50008E-001	0.00000E+000	5	...........	1367.65
	305	0.0612	5.20433E-001	-4.03698E-009	0.00000E+000	5.20016E-001	0.00000E+000	5	...........	1367.65
	308	0.0618	4.90445E-001	-4.94038E-009	0.00000E+000	4.90024E-001	0.00000E+000	5	...........	1367.65
	311	0.0624	4.60387E-001	-5.84110E-009	0.00000E+000	4.59981E-001	0.00000E+000	5	...........	1367.65
[...]
	594	0.119	4.30399E-001	-7.05753E-009	0.00000E+000	4.29989E-001	0.00000E+000	5	...........	1367.65
	597	0.1196	4.00401E-001	-8.06204E-009	0.00000E+000	3.99997E-001	0.00000E+000	5	...........	1367.65
	600	0.1202	3.70393E-001	-9.02751E-009	0.00000E+000	3.70004E-001	0.00000E+000	5	...........	1367.65
	603	0.1208	3.40425E-001	-9.85915E-009	0.00000E+000	3.40012E-001	0.00000E+000	5	...........	1367.65
	606	0.1214	3.10446E-001	-1.05216E-008	0.00000E+000	3.10020E-001	0.00000E+000	5	...........	1367.65
	609	0.122	2.80388E-001	-1.10269E-008	0.00000E+000	2.79977E-001	0.00000E+000	5	...........	1367.65
	612	0.1226	2.50370E-001	-1.13729E-008	0.00000E+000	2.49985E-001	0.00000E+000	5	...........	1367.65
	615	0.1232	2.20382E-001	-1.15638E-008	0.00000E+000	2.19993E-001	0.00000E+000	5	...........	1367.65
	618	0.1238	1.90374E-001	-1.16206E-008	0.00000E+000	1.90000E-001	0.00000E+000	5	...........	1367.65
	621	0.1244	1.60426E-001	-1.15545E-008	0.00000E+000	1.60008E-001	0.00000E+000	5	...........	1367.65
	624	0.125	1.30408E-001	-1.13980E-008	0.00000E+000	1.30016E-001	0.00000E+000	5	...........	1367.65
	627	0.1256	1.00410E-001	-1.11730E-008	0.00000E+000	1.00023E-001	0.00000E+000	5	...........	1367.65
	630	0.1262	7.03317E-002	-1.09077E-008	0.00000E+000	6.99811E-002	0.00000E+000	5	...........	1367.65
	633	0.1268	4.03437E-002	-1.06157E-008	0.00000E+000	3.99887E-002	0.00000E+000	5	...........	1367.65
	636	0.1274	1.03756E-002	-1.03217E-008	0.00000E+000	9.99641E-003	0.00000E+000	5	...........	1367.65
	639	0.128	-1.96525E-002	-1.00504E-008	0.00000E+000	-1.99959E-002	0.00000E+000	5	...........	1367.65
	642	0.1286	-4.96706E-002	-9.82612E-009	0.00000E+000	-4.99882E-002	0.00000E+000	5	...........	1367.65
	645	0.1292	-7.96586E-002	-9.66659E-009	0.00000E+000	-7.99806E-002	0.00000E+000	5	...........	1367.65
	648	0.1298	-1.09697E-001	-9.58483E-009	0.00000E+000	-1.10023E-001	0.00000E+000	5	...........	1367.65
	651	0.1304	-1.39685E-001	-9.58249E-009	0.00000E+000	-1.40015E-001	0.00000E+000	5	...........	1367.65
	654	0.131	-1.69623E-001	-9.64824E-009	0.00000E+000	-1.70007E-001	0.00000E+000	5	...........	1367.65
	657	0.1316	-1.99661E-001	-9.76371E-009	0.00000E+000	-2.00000E-001	0.00000E+000	5	...........	1367.65
	660	0.1322	-2.29639E-001	-9.91689E-009	0.00000E+000	-2.29992E-001	0.00000E+000	5	...........	1367.65
	663	0.1328	-2.59647E-001	-1.01034E-008	0.00000E+000	-2.59984E-001	0.00000E+000	5	...........	1367.65
	666	0.1334	-2.89625E-001	-1.03087E-008	0.00000E+000	-2.89977E-001	0.00000E+000	5	...........	1367.65
	669	0.134	-3.19673E-001	-1.05163E-008	0.00000E+000	-3.20019E-001	0.00000E+000	5	...........	1367.65
	672	0.1346	-3.49651E-001	-1.06818E-008	0.00000E+000	-3.50011E-001	0.00000E+000	5	...........	1367.65
	675	0.1352	-3.79639E-001	-1.07929E-008	0.00000E+000	-3.80004E-001	0.00000E+000	5	...........	1367.65
	678	0.1358	-4.09668E-001	-1.08326E-008	0.00000E+000	-4.09996E-001	0.00000E+000	5	...........	1367.65
	681	0.1364	-4.39656E-001	-1.08063E-008	0.00000E+000	-4.39988E-001	0.00000E+000	5	...........	1367.65
	684	0.137	-4.69664E-001	-1.06978E-008	0.00000E+000	-4.69981E-001	0.00000E+000	5	...........	1367.65
	687	0.1376	-4.99702E-001	-1.05209E-008	0.00000E+000	-5.00023E-001	0.00000E+000	5	...........	1367.65
	690	0.1382	-5.29630E-001	-1.02643E-008	0.00000E+000	-5.30015E-001	0.00000E+000	5	...........	1367.65
	693	0.1388	-5.59628E-001	-9.94092E-009	0.00000E+000	-5.60008E-001	0.00000E+000	5	...........	1367.65
	696	0.1394	-5.89696E-001	-9.57582E-009	0.00000E+000	-5.90000E-001	0.00000E+000	5	...........	1367.65
	699	0.14	-5.80373E-001	-8.23925E-009	0.00000E+000	-5.80003E-001	0.00000E+000	5	...........	1367.65
	702	0.1406	-5.50365E-001	-6.41177E-009	0.00000E+000	-5.50010E-001	0.00000E+000	5	...........	1367.65
	705	0.1412	-5.20357E-001	-4.68141E-009	0.00000E+000	-5.20018E-001	0.00000E+000	5	...........	1367.65
	708	0.1418	-4.90379E-001	-3.08020E-009	0.00000E+000	-4.89976E-001	0.00000E+000	5	...........	1367.65
	711	0.1424	-4.60371E-001	-1.61414E-009	0.00000E+000	-4.59983E-001	0.00000E+000	5	...........	1367.65
	714	0.143	-4.30343E-001	-2.82578E-010	0.00000E+000	-4.29991E-001	0.00000E+000	5	...........	1367.65
	717	0.1436	-4.00405E-001	9.23170E-010	0.00000E+000	-3.99999E-001	0.00000E+000	5	...........	1367.65
	720	0.1442	-3.70327E-001	2.01212E-009	0.00000E+000	-3.70006E-001	0.00000E+000	5	...........	1367.65
	723	0.1448	-3.40379E-001	2.99060E-009	0.00000E+000	-3.40014E-001	0.00000E+000	5	...........	1367.65
	726	0.1454	-3.10371E-001	3.86629E-009	0.00000E+000	-3.10022E-001	0.00000E+000	5	...........	1367.65
	729	0.146	-2.80363E-001	4.64721E-009	0.00000E+000	-2.79979E-001	0.00000E+000	5	...........	1367.65
	732	0.1466	-2.50345E-001	5.34169E-009	0.00000E+000	-2.49987E-001	0.00000E+000	5	...........	1367.65
	735	0.1472	-2.20397E-001	5.94573E-009	0.00000E+000	-2.19995E-001	0.00000E+000	5	...........	1367.65
	738	0.1478	-1.90378E-001	6.45633E-009	0.00000E+000	-1.90002E-001	0.00000E+000	5	...........	1367.65
	741	0.1484	-1.60350E-001	6.87282E-009	0.00000E+000	-1.60010E-001	0.00000E+000	5	...........	1367.65
	744	0.149	-1.30362E-001	7.20488E-009	0.00000E+000	-1.30018E-001	0.00000E+000	5	...........	1367.65
	747	0.1496	-1.00294E-001	7.45384E-009	0.00000E+000	-9.99754E-002	0.00000E+000	5	...........	1367.65
	750	0.1502	-7.03361E-002	7.63905E-009	0.00000E+000	-6.99831E-002	0.00000E+000	5	...........	1367.65
	753	0.1508	-4.03781E-002	7.77588E-009	0.00000E+000	-3.99908E-002	0.00000E+000	5	...........	1367.65
	756	0.1514	-1.03500E-002	7.89135E-009	0.00000E+000	-9.99847E-003	0.00000E+000	5	...........	1367.65
	759	0.152	1.97081E-002	8.00348E-009	0.00000E+000	1.99939E-002	0.00000E+000	5	...........	1367.65
	762	0.1526	4.96562E-002	8.14098E-009	0.00000E+000	4.99862E-002	0.00000E+000	5	...........	1367.65
	765	0.1532	7.97043E-002	8.32052E-009	0.00000E+000	7.99785E-002	0.00000E+000	5	...........	1367.65
	768	0.1538	1.09732E-001	8.54178E-009	0.00000E+000	1.10021E-001	0.00000E+000	5	...........	1367.65
	771	0.1544	1.39660E-001	8.79775E-009	0.00000E+000	1.40013E-001	0.00000E+000	5	...........	1367.65
	774	0.155	1.69658E-001	9.10010E-009	0.00000E+000	1.70005E-001	0.00000E+000	5	...........	1367.65
	777	0.1556	1.99707E-001	9.45352E-009	0.00000E+000	1.99998E-001	0.00000E+000	5	...........	1367.65
	780	0.1562	2.29675E-001	9.87935E-009	0.00000E+000	2.29990E-001	0.00000E+000	5	...........	1367.65
	783	0.1568	2.59703E-001	1.04020E-008	0.00000E+000	2.59982E-001	0.00000E+000	5	...........	1367.65
	786	0.1574	2.89731E-001	1.10524E-008	0.00000E+000	2.90025E-001	0.00000E+000	5	...........	1367.65
	789	0.158	3.19679E-001	1.17302E-008	0.00000E+000	3.20017E-001	0.00000E+000	5	...........	1367.65
	792	0.1586	3.49717E-001	1.23075E-008	0.00000E+000	3.50009E-001	0.00000E+000	5	...........	1367.65
	795	0.1592	3.79665E-001	1.27307E-008	0.00000E+000	3.80002E-001	0.00000E+000	5	...........	1367.65
	798	0.1598	4.09673E-001	1.30287E-008	0.00000E+000	4.09994E-001	0.00000E+000	5	...........	1367.65
	801	0.1604	4.39711E-001	1.31959E-008	0.00000E+000	4.39986E-001	0.00000E+000	5	...........	1367.65
	804	0.161	4.69679E-001	1.32266E-008	0.00000E+000	4.69979E-001	0.00000E+000	5	...........	1367.65
	807	0.1616	4.99757E-001	1.31015E-008	0.00000E+000	5.00021E-001	0.00000E+000	5	...........	1367.65
	810	0.1622	5.29745E-001	1.28448E-008	0.00000E+000	5.30013E-001	0.00000E+000	5	...........	1367.65
	813	0.1628	5.59724E-001	1.24884E-008	0.00000E+000	5.60006E-001	0.00000E+000	5	...........	1367.65
	816	0.1634	5.89732E-001	1.20846E-008	0.00000E+000	5.89998E-001	0.00000E+000	5	...........	1367.65
	819	0.164	6.19720E-001	1.16624E-008	0.00000E+000	6.19990E-001	0.00000E+000	5	...........	1367.65
	822	0.1646	6.49698E-001	1.12493E-008	0.00000E+000	6.49983E-001	0.00000E+000	5	...........	1367.65
	825	0.1652	6.79756E-001	1.08251E-008	0.00000E+000	6.80025E-001	0.00000E+000	5	...........	1367.65
	828	0.1658	7.09774E-001	1.03873E-008	0.00000E+000	7.10017E-001	0.00000E+000	5	...........	1367.65
	831	0.1664	7.39712E-001	9.93708E-009	0.00000E+000	7.40010E-001	0.00000E+000	5	...........	1367.65
	834	0.167	7.69730E-001	9.49723E-009	0.00000E+000	7.70002E-001	0.00000E+000	5	...........	1367.65
	837	0.1676	7.99748E-001	9.09777E-009	0.00000E+000	7.99994E-001	0.00000E+000	5	...........	1367.65
CURVE4	TABLE
	Pt	T	Vf	Im	Vu	Sig	Ach	IERange	Over	Temp
	#	s	V vs. Ref.	A	V	V	V	#	bits	deg C
	838	0.1678	7.90446E-001	8.56748E-009	0.00000E+000	7.89997E-001	0.00000E+000	5	...........	1367.65
	839	0.168	7.80393E-001	7.96143E-009	0.00000E+000	7.79999E-001	0.00000E+000	5	...........	1367.65
	840	0.1682	7.70450E-001	7.34638E-009	0.00000E+000	7.70002E-001	0.00000E+000	5	...........	1367.65