File: Test_Data_Files/20250424_J_CHI105_12,5umAu_E000_PBSarg_CV50.DTA
EXPLAIN
TAG	CV
TITLE	LABEL	Cyclic Voltammetry	Test &Identifier
DATE	LABEL	4/24/2025	Date
TIME	LABEL	13:16:19	Time
NOTES	NOTES	3	&Notes...

PSTAT	PSTAT	IFC1010-32247	Potentiostat
VINIT	POTEN	0.00000E+000	T	Initial &E (V)
VLIMIT1	POTEN	-6.00000E-001	F	Scan Limit &1 (V)
VLIMIT2	POTEN	8.00000E-001	F	Scan Limit &2 (V)
VFINAL	POTEN	0.00000E+000	T	Final &E (V)
SCANRATE	QUANT	4.99999E+001	&Scan Rate (mV/s)
STEPSIZE	QUANT	1.00000E+001	St&ep Size (mV)
CYCLES	IQUANT	2	C&ycles (#)
IMODE	SELECTOR	0	I/E Range &Mode
IRANGE	QUANT	1.00000E-004	&Max Current (mA)
AREA	QUANT	1.00000E+000	Electrode &Area (cm^2)
ELECTRODETYPE	SELECTOR	0	Electrode Type
STRIPPING	TOGGLE	F	Used for Stripping
CONDIT	TWOPARAM	F	1.50000E+001	0.00000E+000	Conditionin&g	Time(s)	E(V)
DELAY	TWOPARAM	T	1.50000E+001	0.00000E+000	Init. De&lay	Time(s)	Stab.(mV/s)
EQDELAY	QUANT	0.00000E+000	Equil. &Time (s)
IRCOMP	SELECTOR	0	IRCom&p
PFCOR	QUANT	5.00000E+001	PF Corr. (ohm)
SAMPLINGMODE	SELECTOR	2	Sampling &Mode
OCVCURVE	TABLE	58
	Pt	T	Vf	Vm	Ach	Over	Temp
	#	s	V vs. Ref.	V	V	bits	deg C
	0	0.258333	8.62320E-001	8.62320E-001	0.00000E+000	...........	1367.57
	1	0.516667	8.62338E-001	8.63217E-001	0.00000E+000	...........	1367.57
	2	0.775	8.62441E-001	8.63983E-001	0.00000E+000	...........	1367.57
	3	1.03333	8.62729E-001	8.64726E-001	0.00000E+000	...........	1367.48
	4	1.29167	8.63236E-001	8.65543E-001	0.00000E+000	...........	1367.48
	5	1.55	8.63910E-001	8.66348E-001	0.00000E+000	...........	1367.48
	6	1.80833	8.64670E-001	8.67042E-001	0.00000E+000	...........	1367.48
	7	2.06667	8.65456E-001	8.67766E-001	0.00000E+000	...........	1367.57
	8	2.325	8.66229E-001	8.68425E-001	0.00000E+000	...........	1367.57
	9	2.58333	8.66972E-001	8.69113E-001	0.00000E+000	...........	1367.57
	10	2.84167	8.67686E-001	8.69786E-001	0.00000E+000	...........	1367.57
	11	3.1	8.68376E-001	8.70326E-001	0.00000E+000	...........	1367.57
	12	3.35833	8.69041E-001	8.70891E-001	0.00000E+000	...........	1367.57
	13	3.61667	8.69674E-001	8.71435E-001	0.00000E+000	...........	1367.57
	14	3.875	8.70269E-001	8.71900E-001	0.00000E+000	...........	1367.57
	15	4.13333	8.70829E-001	8.72338E-001	0.00000E+000	...........	1367.57
	16	4.39167	8.71354E-001	8.72870E-001	0.00000E+000	...........	1367.57
	17	4.65	8.71852E-001	8.73365E-001	0.00000E+000	...........	1367.57
	18	4.90833	8.72342E-001	8.73992E-001	0.00000E+000	...........	1367.57
	19	5.16667	8.72846E-001	8.74540E-001	0.00000E+000	...........	1367.48
	20	5.425	8.73376E-001	8.75064E-001	0.00000E+000	...........	1367.48
	21	5.68333	8.73925E-001	8.75647E-001	0.00000E+000	...........	1367.48
	22	5.94167	8.74479E-001	8.76102E-001	0.00000E+000	...........	1367.36
	23	6.2	8.75025E-001	8.76567E-001	0.00000E+000	...........	1367.22
	24	6.45833	8.75551E-001	8.77000E-001	0.00000E+000	...........	1367.22
	25	6.71667	8.76046E-001	8.77396E-001	0.00000E+000	...........	1367.22
	26	6.975	8.76509E-001	8.77744E-001	0.00000E+000	...........	1367.48
	27	7.23333	8.76941E-001	8.78173E-001	0.00000E+000	...........	1367.48
	28	7.49167	8.77348E-001	8.78562E-001	0.00000E+000	...........	1367.48
	29	7.75	8.77744E-001	8.78980E-001	0.00000E+000	...........	1367.48
	30	8.00833	8.78137E-001	8.79227E-001	0.00000E+000	...........	1367.57
	31	8.26667	8.78522E-001	8.79663E-001	0.00000E+000	...........	1367.57
	32	8.525	8.78892E-001	8.79922E-001	0.00000E+000	...........	1367.57
	33	8.78333	8.79245E-001	8.80219E-001	0.00000E+000	...........	1367.57
	34	9.04167	8.79581E-001	8.80581E-001	0.00000E+000	...........	1367.57
	35	9.3	8.79905E-001	8.80928E-001	0.00000E+000	...........	1367.57
	36	9.5583	8.80227E-001	8.81238E-001	0.00000E+000	...........	1367.57
	37	9.8167	8.80553E-001	8.81467E-001	0.00000E+000	...........	1367.57
	38	10.075	8.80872E-001	8.81721E-001	0.00000E+000	...........	1367.57
	39	10.3333	8.81168E-001	8.81813E-001	0.00000E+000	...........	1367.57
	40	10.5917	8.81426E-001	8.82015E-001	0.00000E+000	...........	1367.57
	41	10.85	8.81643E-001	8.82183E-001	0.00000E+000	...........	1367.57
	42	11.1083	8.81830E-001	8.82406E-001	0.00000E+000	...........	1367.57
	43	11.3667	8.82010E-001	8.82673E-001	0.00000E+000	...........	1367.57
	44	11.625	8.82205E-001	8.83073E-001	0.00000E+000	...........	1367.57
	45	11.8833	8.82437E-001	8.83454E-001	0.00000E+000	...........	1367.57
	46	12.1417	8.82719E-001	8.83693E-001	0.00000E+000	...........	1367.57
	47	12.4	8.83035E-001	8.83909E-001	0.00000E+000	...........	1367.57
	48	12.6583	8.83352E-001	8.84247E-001	0.00000E+000	...........	1367.57
	49	12.9167	8.83651E-001	8.84581E-001	0.00000E+000	...........	1367.57
	50	13.175	8.83941E-001	8.84874E-001	0.00000E+000	...........	1367.57
	51	13.4333	8.84236E-001	8.85123E-001	0.00000E+000	...........	1367.57
	52	13.6917	8.84537E-001	8.85541E-001	0.00000E+000	...........	1367.57
	53	13.95	8.84846E-001	8.86014E-001	0.00000E+000	...........	1367.30
	54	14.2083	8.85179E-001	8.86330E-001	0.00000E+000	...........	1367.14
	55	14.4667	8.85543E-001	8.86740E-001	0.00000E+000	...........	1367.14
	56	14.725	8.85926E-001	8.87015E-001	0.00000E+000	...........	1367.14
	57	14.9833	8.86301E-001	8.87217E-001	0.00000E+000	...........	1367.48
EOC	QUANT	0.8863007	Open Circuit (V)
PSTATMODEL	IQUANT	64	Pstat Model
PSTATSECTION	LABEL	IFC1010-32247	Pstat Section
PSTATSERIALNO	LABEL	32247	Pstat Serial Number
CTRLMODE	IQUANT	1	Control Mode
ELECTROMETER	IQUANT	0	RE=0 or CS=1
IESTAB	IQUANT	2	I/E Stability
CASPEED	IQUANT	4	Control Amp Speed
CONVENTION	IQUANT	1	Current Convention
ICHRANGE	IQUANT	2	Ich Range
ICHRANGEMODE	TOGGLE	F	Ich Auto Range
ICHOFFSETENABLE	TOGGLE	F	Ich Offset Enable
ICHOFFSET	QUANT	0	Ich Offset (V)
ICHFILTER	IQUANT	3	Ich Filter
VCHRANGE	IQUANT	2	Vch Range
VCHRANGEMODE	TOGGLE	F	Vch Auto Range
VCHOFFSETENABLE	TOGGLE	F	Vch Offset Enable
VCHOFFSET	QUANT	0	Vch Offset (V)
VCHFILTER	IQUANT	3	Vch Filter
IERANGELOWERLIMIT	IQUANT	4	I/E Range Lower Limit
IERANGEMODE	TOGGLE	T	I/E AutoRange
IERANGE	IQUANT	6	I/E Range
ACHSELECT	IQUANT	0	Ach Select
ACHRANGE	IQUANT	2	Ach Range
ACHOFFSETENABLE	TOGGLE	F	Ach Offset Enable
ACHOFFSET	QUANT	0	Ach Offset (V)
ACHFILTER	IQUANT	1	Ach Filter
SENSECABLEID	IQUANT	14	Sense Cable ID
PWRCABLEID	IQUANT	14	Power Cable ID
DCCALDATE	LABEL	11/18/2024	DC Calibration Date
ACCALDATE	LABEL	4/18/2022	AC Calibration Date
FRAMEWORKVERSION	LABEL	7.10.3	Framework Version
INSTRUMENTVERSION	LABEL	4.91	Instrument Version
COMMVERSION	LABEL	3.10	Communications Version
CPUPLDVERSION	LABEL	2.22	CPU PLD Version
CTRLPLDVERSION	LABEL	0.00	CTRL PLD Version
PSTATPLDVERSION	LABEL	0.00	PSTAT PLD Version
CURVE1	TABLE
	Pt	T	Vf	Im	Vu	Sig	Ach	IERange	Over	Temp
	#	s	V vs. Ref.	A	V	V	V	#	bits	deg C
	0	0.2	8.86395E-001	-9.23047E-011	0.00000E+000	8.86322E-001	0.00000E+000	6	...........	1367.57
	3	0.8	8.56335E-001	-1.51961E-011	0.00000E+000	8.56279E-001	0.00000E+000	5	...........	1367.57
	6	1.4	8.26360E-001	-2.16665E-011	0.00000E+000	8.26287E-001	0.00000E+000	5	...........	1367.05
	9	2	7.96368E-001	-2.56786E-011	0.00000E+000	7.96295E-001	0.00000E+000	5	...........	1366.84
	12	2.6	7.66352E-001	-3.07098E-011	0.00000E+000	7.66302E-001	0.00000E+000	5	...........	1366.79
	15	3.2	7.36404E-001	-3.50339E-011	0.00000E+000	7.36310E-001	0.00000E+000	5	...........	1366.97
	18	3.8	7.06391E-001	-4.08726E-011	0.00000E+000	7.06318E-001	0.00000E+000	5	...........	1366.97
	21	4.4	6.76389E-001	-4.61697E-011	0.00000E+000	6.76325E-001	0.00000E+000	5	...........	1366.97
	24	5	6.46362E-001	-5.49719E-011	0.00000E+000	6.46283E-001	0.00000E+000	5	...........	1366.62
	27	5.6	6.16362E-001	-6.68008E-011	0.00000E+000	6.16291E-001	0.00000E+000	5	...........	1366.54
	30	6.2	5.86356E-001	-8.91106E-011	0.00000E+000	5.86298E-001	0.00000E+000	5	...........	1366.97
	33	6.8	5.56369E-001	-1.32911E-010	0.00000E+000	5.56306E-001	0.00000E+000	5	...........	1366.97
	36	7.4	5.26375E-001	-2.37088E-010	0.00000E+000	5.26314E-001	0.00000E+000	5	...........	1366.97
	39	8	4.96370E-001	-5.14887E-010	0.00000E+000	4.96321E-001	0.00000E+000	5	...........	1366.97
	42	8.6	4.66319E-001	-1.14367E-009	0.00000E+000	4.66279E-001	0.00000E+000	5	...........	1366.97
	45	9.2	4.36343E-001	-1.39868E-009	0.00000E+000	4.36287E-001	0.00000E+000	5	...........	1366.97
	48	9.8	4.06340E-001	-1.33602E-009	0.00000E+000	4.06295E-001	0.00000E+000	5	...........	1366.97
	51	10.4	3.76325E-001	-1.14541E-009	0.00000E+000	3.76302E-001	0.00000E+000	5	...........	1366.97
	54	11	3.46352E-001	-6.28268E-010	0.00000E+000	3.46310E-001	0.00000E+000	5	...........	1366.97
	57	11.6	3.16355E-001	-3.50236E-010	0.00000E+000	3.16318E-001	0.00000E+000	5	...........	1366.97
	60	12.2	2.86338E-001	-2.57338E-010	0.00000E+000	2.86325E-001	0.00000E+000	5	...........	1366.97
	63	12.8	2.56318E-001	-2.09090E-010	0.00000E+000	2.56283E-001	0.00000E+000	5	...........	1366.97
	66	13.4	2.26306E-001	-1.69932E-010	0.00000E+000	2.26291E-001	0.00000E+000	5	...........	1366.97
	69	14	1.96314E-001	-1.54470E-010	0.00000E+000	1.96298E-001	0.00000E+000	5	...........	1366.97
	72	14.6	1.66328E-001	-1.56228E-010	0.00000E+000	1.66306E-001	0.00000E+000	5	...........	1366.97
	75	15.2	1.36332E-001	-1.60483E-010	0.00000E+000	1.36314E-001	0.00000E+000	5	...........	1366.88
	78	15.8	1.06332E-001	-1.66989E-010	0.00000E+000	1.06321E-001	0.00000E+000	5	...........	1366.88
	81	16.4	7.62978E-002	-1.74392E-010	0.00000E+000	7.62790E-002	0.00000E+000	5	...........	1366.97
	84	17	4.62958E-002	-1.81327E-010	0.00000E+000	4.62867E-002	0.00000E+000	5	...........	1366.97
	87	17.6	1.62962E-002	-1.88923E-010	0.00000E+000	1.62944E-002	0.00000E+000	5	...........	1366.97
	90	18.2	-1.37298E-002	-1.94854E-010	0.00000E+000	-1.36980E-002	0.00000E+000	5	...........	1366.97
	93	18.8	-4.37071E-002	-2.00519E-010	0.00000E+000	-4.36903E-002	0.00000E+000	5	...........	1366.97
	96	19.4	-7.36857E-002	-2.07458E-010	0.00000E+000	-7.36826E-002	0.00000E+000	5	...........	1366.97
	99	20	-1.03705E-001	-2.13662E-010	0.00000E+000	-1.03675E-001	0.00000E+000	5	...........	1366.90
	102	20.6	-1.33741E-001	-2.20251E-010	0.00000E+000	-1.33717E-001	0.00000E+000	5	...........	1366.88
	105	21.2	-1.63719E-001	-2.26311E-010	0.00000E+000	-1.63710E-001	0.00000E+000	5	...........	1366.88
	108	21.8	-1.93723E-001	-2.30466E-010	0.00000E+000	-1.93702E-001	0.00000E+000	5	...........	1366.88
	111	22.4	-2.23701E-001	-2.35094E-010	0.00000E+000	-2.23694E-001	0.00000E+000	5	...........	1366.79
	114	23	-2.53695E-001	-2.36802E-010	0.00000E+000	-2.53687E-001	0.00000E+000	5	...........	1366.79
	117	23.6	-2.83687E-001	-2.37976E-010	0.00000E+000	-2.83679E-001	0.00000E+000	5	...........	1366.79
	120	24.2	-3.13731E-001	-2.37055E-010	0.00000E+000	-3.13721E-001	0.00000E+000	5	...........	1366.79
	123	24.8	-3.43742E-001	-2.42871E-010	0.00000E+000	-3.43713E-001	0.00000E+000	5	...........	1366.79
	126	25.4	-3.73727E-001	-2.49639E-010	0.00000E+000	-3.73706E-001	0.00000E+000	5	...........	1366.71
	129	26	-4.03699E-001	-2.53978E-010	0.00000E+000	-4.03698E-001	0.00000E+000	5	...........	1366.71
	132	26.6	-4.33717E-001	-2.43095E-010	0.00000E+000	-4.33690E-001	0.00000E+000	5	...........	1366.71
	135	27.2	-4.63718E-001	-2.33555E-010	0.00000E+000	-4.63683E-001	0.00000E+000	5	...........	1366.71
	138	27.8	-4.93696E-001	-2.37695E-010	0.00000E+000	-4.93675E-001	0.00000E+000	5	...........	1366.71
	141	28.4	-5.23727E-001	-2.42628E-010	0.00000E+000	-5.23717E-001	0.00000E+000	5	...........	1366.62
	144	29	-5.53731E-001	-2.46978E-010	0.00000E+000	-5.53710E-001	0.00000E+000	5	...........	1366.62
	147	29.6	-5.83725E-001	-2.58215E-010	0.00000E+000	-5.83702E-001	0.00000E+000	5	...........	1366.62
	150	30.2	-5.93749E-001	-2.33683E-010	0.00000E+000	-5.93699E-001	0.00000E+000	5	...........	1366.54
	153	30.8	-5.63753E-001	-1.98649E-010	0.00000E+000	-5.63707E-001	0.00000E+000	5	...........	1366.54
	156	31.4	-5.33760E-001	-1.77284E-010	0.00000E+000	-5.33715E-001	0.00000E+000	5	...........	1366.54
	159	32	-5.03721E-001	-1.55601E-010	0.00000E+000	-5.03672E-001	0.00000E+000	5	...........	1366.54
	162	32.6	-4.73706E-001	-1.30613E-010	0.00000E+000	-4.73680E-001	0.00000E+000	5	...........	1366.54
	165	33.2	-4.43743E-001	-1.11129E-010	0.00000E+000	-4.43688E-001	0.00000E+000	5	...........	1366.54
	168	33.8	-4.13744E-001	-9.14707E-011	0.00000E+000	-4.13696E-001	0.00000E+000	5	...........	1366.54
	171	34.4	-3.83726E-001	-7.31296E-011	0.00000E+000	-3.83703E-001	0.00000E+000	5	...........	1366.54
	174	35	-3.53764E-001	-5.83280E-011	0.00000E+000	-3.53711E-001	0.00000E+000	5	...........	1366.54
	177	35.6	-3.23761E-001	-4.31382E-011	0.00000E+000	-3.23719E-001	0.00000E+000	5	...........	1366.54
	180	36.2	-2.93707E-001	-2.81307E-011	0.00000E+000	-2.93676E-001	0.00000E+000	5	...........	1366.54
	183	36.8	-2.63738E-001	-1.55825E-011	0.00000E+000	-2.63684E-001	0.00000E+000	5	...........	1366.54
	186	37.4	-2.33729E-001	-2.46595E-012	0.00000E+000	-2.33692E-001	0.00000E+000	5	...........	1366.54
	189	38	-2.03729E-001	8.39588E-012	0.00000E+000	-2.03699E-001	0.00000E+000	5	...........	1366.54
	192	38.6	-1.73759E-001	1.60879E-011	0.00000E+000	-1.73707E-001	0.00000E+000	5	...........	1366.54
	195	39.2	-1.43760E-001	2.39326E-011	0.00000E+000	-1.43715E-001	0.00000E+000	5	...........	1366.54
	198	39.8	-1.13749E-001	3.22366E-011	0.00000E+000	-1.13722E-001	0.00000E+000	5	...........	1366.54
	201	40.4	-8.37132E-002	3.79479E-011	0.00000E+000	-8.36800E-002	0.00000E+000	5	...........	1366.45
	204	41	-5.37338E-002	4.31157E-011	0.00000E+000	-5.36877E-002	0.00000E+000	5	...........	1366.88
	207	41.6	-2.37312E-002	4.74818E-011	0.00000E+000	-2.36954E-002	0.00000E+000	5	...........	1366.97
	210	42.2	6.27483E-003	4.97916E-011	0.00000E+000	6.29692E-003	0.00000E+000	5	...........	1366.97
	213	42.8	3.62759E-002	5.35458E-011	0.00000E+000	3.62892E-002	0.00000E+000	5	...........	1366.97
	216	43.4	6.62544E-002	5.72828E-011	0.00000E+000	6.62816E-002	0.00000E+000	5	...........	1366.97
	219	44	9.63200E-002	6.00565E-011	0.00000E+000	9.63239E-002	0.00000E+000	5	...........	1366.97
	222	44.6	1.26298E-001	6.36154E-011	0.00000E+000	1.26316E-001	0.00000E+000	5	...........	1366.97
	225	45.2	1.56313E-001	6.70745E-011	0.00000E+000	1.56309E-001	0.00000E+000	5	...........	1366.97
	228	45.8	1.86290E-001	7.20159E-011	0.00000E+000	1.86301E-001	0.00000E+000	5	...........	1366.97
	231	46.4	2.16279E-001	7.48322E-011	0.00000E+000	2.16293E-001	0.00000E+000	5	...........	1366.97
	234	47	2.46289E-001	7.90629E-011	0.00000E+000	2.46285E-001	0.00000E+000	5	...........	1366.97
	237	47.6	2.76279E-001	8.04639E-011	0.00000E+000	2.76278E-001	0.00000E+000	5	...........	1366.97
	240	48.2	3.06311E-001	7.81108E-011	0.00000E+000	3.06320E-001	0.00000E+000	5	...........	1366.97
	243	48.8	3.36334E-001	7.70224E-011	0.00000E+000	3.36312E-001	0.00000E+000	5	...........	1366.97
	246	49.4	3.66318E-001	7.37930E-011	0.00000E+000	3.66305E-001	0.00000E+000	5	...........	1366.97
	249	50	3.96303E-001	7.10649E-011	0.00000E+000	3.96297E-001	0.00000E+000	5	...........	1366.97
	252	50.6	4.26310E-001	6.83835E-011	0.00000E+000	4.26289E-001	0.00000E+000	5	...........	1366.97
	255	51.2	4.56305E-001	7.09573E-011	0.00000E+000	4.56282E-001	0.00000E+000	5	...........	1366.97
	258	51.8	4.86357E-001	6.98558E-011	0.00000E+000	4.86324E-001	0.00000E+000	5	...........	1366.97
	261	52.4	5.16357E-001	7.29227E-011	0.00000E+000	5.16316E-001	0.00000E+000	5	...........	1366.97
	264	53	5.46339E-001	7.04933E-011	0.00000E+000	5.46309E-001	0.00000E+000	5	...........	1366.97
	267	53.6	5.76350E-001	6.40733E-011	0.00000E+000	5.76301E-001	0.00000E+000	5	...........	1366.97
	270	54.2	6.06332E-001	6.17691E-011	0.00000E+000	6.06293E-001	0.00000E+000	5	...........	1366.97
	273	54.8	6.36315E-001	6.68006E-011	0.00000E+000	6.36286E-001	0.00000E+000	5	...........	1366.97
	276	55.4	6.66320E-001	7.42514E-011	0.00000E+000	6.66278E-001	0.00000E+000	5	...........	1366.97
	279	56	6.96353E-001	7.77097E-011	0.00000E+000	6.96320E-001	0.00000E+000	5	...........	1366.97
	282	56.6	7.26377E-001	8.81112E-011	0.00000E+000	7.26313E-001	0.00000E+000	5	...........	1366.97
	285	57.2	7.56367E-001	1.01239E-010	0.00000E+000	7.56305E-001	0.00000E+000	5	...........	1366.97
	288	57.8	7.86333E-001	1.34654E-010	0.00000E+000	7.86297E-001	0.00000E+000	5	...........	1366.97
	289	58	7.96339E-001	1.54632E-010	0.00000E+000	7.96295E-001	0.00000E+000	5	...........	1366.97
CURVE2	TABLE
	Pt	T	Vf	Im	Vu	Sig	Ach	IERange	Over	Temp
	#	s	V vs. Ref.	A	V	V	V	#	bits	deg C
	290	58.2	7.90074E-001	1.21962E-010	0.00000E+000	7.89996E-001	0.00000E+000	5	...........	1366.97
	293	58.8	7.60072E-001	7.04911E-011	0.00000E+000	7.60004E-001	0.00000E+000	5	...........	1366.97
	296	59.4	7.30101E-001	4.66298E-011	0.00000E+000	7.30012E-001	0.00000E+000	5	...........	1366.97
	299	60	7.00069E-001	2.76668E-011	0.00000E+000	7.00019E-001	0.00000E+000	5	...........	1366.97
	302	60.6	6.70045E-001	1.49964E-011	0.00000E+000	6.69977E-001	0.00000E+000	5	...........	1366.97
	305	61.2	6.40060E-001	2.81338E-012	0.00000E+000	6.39985E-001	0.00000E+000	5	...........	1366.97
	308	61.8	6.10059E-001	-7.22986E-012	0.00000E+000	6.09992E-001	0.00000E+000	5	...........	1366.97
	311	62.4	5.80057E-001	-1.26649E-011	0.00000E+000	5.80000E-001	0.00000E+000	5	...........	1366.97
	314	63	5.50070E-001	-2.11800E-011	0.00000E+000	5.50008E-001	0.00000E+000	5	...........	1366.97
	317	63.6	5.20049E-001	-2.63956E-011	0.00000E+000	5.20015E-001	0.00000E+000	5	...........	1366.97
	320	64.2	4.90075E-001	-3.36574E-011	0.00000E+000	4.90023E-001	0.00000E+000	5	...........	1366.97
[...]
	338	67.8	3.10071E-001	-6.14278E-011	0.00000E+000	3.10019E-001	0.00000E+000	5	...........	1366.88
	341	68.4	2.79994E-001	-6.54173E-011	0.00000E+000	2.79977E-001	0.00000E+000	5	...........	1366.79
	344	69	2.49995E-001	-6.92513E-011	0.00000E+000	2.49985E-001	0.00000E+000	5	...........	1366.79
	347	69.6	2.19999E-001	-7.39360E-011	0.00000E+000	2.19992E-001	0.00000E+000	5	...........	1366.79
	350	70.2	1.90018E-001	-7.67706E-011	0.00000E+000	1.90000E-001	0.00000E+000	5	...........	1366.79
	353	70.8	1.60014E-001	-7.95374E-011	0.00000E+000	1.60008E-001	0.00000E+000	5	...........	1366.79
	356	71.4	1.30048E-001	-8.22641E-011	0.00000E+000	1.30015E-001	0.00000E+000	5	...........	1366.79
	359	72	1.00033E-001	-8.57602E-011	0.00000E+000	1.00023E-001	0.00000E+000	5	...........	1366.72
	362	72.6	7.00046E-002	-8.85317E-011	0.00000E+000	6.99806E-002	0.00000E+000	5	...........	1366.71
	365	73.2	3.99967E-002	-9.26587E-011	0.00000E+000	3.99883E-002	0.00000E+000	5	...........	1366.62
	368	73.8	9.99635E-003	-9.59887E-011	0.00000E+000	9.99597E-003	0.00000E+000	5	...........	1366.62
	371	74.4	-2.00146E-002	-9.99015E-011	0.00000E+000	-1.99963E-002	0.00000E+000	5	...........	1366.62
	374	75	-4.99918E-002	-1.03426E-010	0.00000E+000	-4.99887E-002	0.00000E+000	5	...........	1366.55
	377	75.6	-7.99935E-002	-1.07520E-010	0.00000E+000	-7.99810E-002	0.00000E+000	5	...........	1366.54
	380	76.2	-1.10046E-001	-1.10979E-010	0.00000E+000	-1.10023E-001	0.00000E+000	5	...........	1366.54
	383	76.8	-1.40022E-001	-1.21731E-010	0.00000E+000	-1.40016E-001	0.00000E+000	5	...........	1366.54
	386	77.4	-1.70024E-001	-1.29263E-010	0.00000E+000	-1.70008E-001	0.00000E+000	5	...........	1366.54
	389	78	-2.00027E-001	-1.35290E-010	0.00000E+000	-2.00000E-001	0.00000E+000	5	...........	1366.54
	392	78.6	-2.29991E-001	-1.42223E-010	0.00000E+000	-2.29993E-001	0.00000E+000	5	...........	1366.54
	395	79.2	-2.60007E-001	-1.47883E-010	0.00000E+000	-2.59985E-001	0.00000E+000	5	...........	1366.54
	398	79.8	-2.89998E-001	-1.53244E-010	0.00000E+000	-2.89977E-001	0.00000E+000	5	...........	1366.54
	401	80.4	-3.20028E-001	-1.61602E-010	0.00000E+000	-3.20020E-001	0.00000E+000	5	...........	1366.54
	404	81	-3.50037E-001	-1.67354E-010	0.00000E+000	-3.50012E-001	0.00000E+000	5	...........	1366.54
	407	81.6	-3.80017E-001	-1.71271E-010	0.00000E+000	-3.80004E-001	0.00000E+000	5	...........	1366.54
	410	82.2	-4.10012E-001	-1.77489E-010	0.00000E+000	-4.09997E-001	0.00000E+000	5	...........	1366.54
	413	82.8	-4.40027E-001	-1.84481E-010	0.00000E+000	-4.39989E-001	0.00000E+000	5	...........	1366.54
	416	83.4	-4.70019E-001	-1.90712E-010	0.00000E+000	-4.69981E-001	0.00000E+000	5	...........	1366.45
	419	84	-4.99991E-001	-1.97778E-010	0.00000E+000	-4.99974E-001	0.00000E+000	5	...........	1366.52
	422	84.6	-5.30031E-001	-2.04778E-010	0.00000E+000	-5.30016E-001	0.00000E+000	5	...........	1366.54
	425	85.2	-5.60024E-001	-2.14539E-010	0.00000E+000	-5.60008E-001	0.00000E+000	5	...........	1366.54
	428	85.8	-5.90034E-001	-2.19182E-010	0.00000E+000	-5.90000E-001	0.00000E+000	5	...........	1366.54
	431	86.4	-5.80051E-001	-1.72692E-010	0.00000E+000	-5.80003E-001	0.00000E+000	5	...........	1366.54
	434	87	-5.50061E-001	-1.35619E-010	0.00000E+000	-5.50011E-001	0.00000E+000	5	...........	1366.54
	437	87.6	-5.20058E-001	-1.13177E-010	0.00000E+000	-5.20018E-001	0.00000E+000	5	...........	1366.54
	440	88.2	-4.90033E-001	-9.56302E-011	0.00000E+000	-4.89976E-001	0.00000E+000	5	...........	1366.54
	443	88.8	-4.60042E-001	-8.09165E-011	0.00000E+000	-4.59984E-001	0.00000E+000	5	...........	1366.54
	446	89.4	-4.30039E-001	-6.70845E-011	0.00000E+000	-4.29991E-001	0.00000E+000	5	...........	1366.54
	449	90	-4.00034E-001	-5.36412E-011	0.00000E+000	-3.99999E-001	0.00000E+000	5	...........	1366.54
	452	90.6	-3.70047E-001	-4.15126E-011	0.00000E+000	-3.70007E-001	0.00000E+000	5	...........	1366.54
	455	91.2	-3.40074E-001	-3.01407E-011	0.00000E+000	-3.40014E-001	0.00000E+000	5	...........	1367.05
	458	91.8	-3.10070E-001	-2.01472E-011	0.00000E+000	-3.10022E-001	0.00000E+000	5	...........	1367.05
	461	92.4	-2.80006E-001	-9.47621E-012	0.00000E+000	-2.79980E-001	0.00000E+000	5	...........	1366.97
	464	93	-2.50017E-001	6.74942E-013	0.00000E+000	-2.49987E-001	0.00000E+000	5	...........	1366.97
	467	93.6	-2.20046E-001	9.48374E-012	0.00000E+000	-2.19995E-001	0.00000E+000	5	...........	1366.97
	470	94.2	-1.90042E-001	1.80558E-011	0.00000E+000	-1.90003E-001	0.00000E+000	5	...........	1366.97
	473	94.8	-1.60054E-001	2.60282E-011	0.00000E+000	-1.60011E-001	0.00000E+000	5	...........	1366.97
	476	95.4	-1.30070E-001	3.15323E-011	0.00000E+000	-1.30018E-001	0.00000E+000	5	...........	1366.97
	479	96	-1.00010E-001	3.69220E-011	0.00000E+000	-9.99759E-002	0.00000E+000	5	...........	1366.97
	482	96.6	-7.00057E-002	4.26094E-011	0.00000E+000	-6.99836E-002	0.00000E+000	5	...........	1366.97
	485	97.2	-4.00415E-002	4.55464E-011	0.00000E+000	-3.99912E-002	0.00000E+000	5	...........	1366.97
	488	97.8	-1.00424E-002	5.02864E-011	0.00000E+000	-9.99890E-003	0.00000E+000	5	...........	1366.97
	491	98.4	1.99756E-002	5.28793E-011	0.00000E+000	1.99934E-002	0.00000E+000	5	...........	1366.97
	494	99	4.99816E-002	5.64402E-011	0.00000E+000	4.99857E-002	0.00000E+000	5	...........	1366.97
	497	99.6	7.99645E-002	5.81823E-011	0.00000E+000	7.99781E-002	0.00000E+000	5	...........	1366.97
	500	100.2	1.10013E-001	6.06501E-011	0.00000E+000	1.10020E-001	0.00000E+000	5	...........	1366.97
	503	100.8	1.39998E-001	6.19379E-011	0.00000E+000	1.40013E-001	0.00000E+000	5	...........	1366.97
	506	101.4	1.69995E-001	6.42510E-011	0.00000E+000	1.70005E-001	0.00000E+000	5	...........	1366.97
	509	102	1.99993E-001	6.61842E-011	0.00000E+000	1.99997E-001	0.00000E+000	5	...........	1366.97
	512	102.6	2.30017E-001	7.11634E-011	0.00000E+000	2.29990E-001	0.00000E+000	5	...........	1366.97
	515	103.2	2.59982E-001	7.28306E-011	0.00000E+000	2.59982E-001	0.00000E+000	5	...........	1366.97
	518	103.8	2.90024E-001	7.39658E-011	0.00000E+000	2.90024E-001	0.00000E+000	5	...........	1366.97
	521	104.4	3.20046E-001	7.53721E-011	0.00000E+000	3.20017E-001	0.00000E+000	5	...........	1366.97
	524	105	3.50011E-001	7.63701E-011	0.00000E+000	3.50009E-001	0.00000E+000	5	...........	1366.97
	527	105.6	3.80004E-001	7.75158E-011	0.00000E+000	3.80001E-001	0.00000E+000	5	...........	1366.97
	530	106.2	4.10022E-001	7.39435E-011	0.00000E+000	4.09994E-001	0.00000E+000	5	...........	1366.97
	533	106.8	4.40014E-001	7.29947E-011	0.00000E+000	4.39986E-001	0.00000E+000	5	...........	1366.97
	536	107.4	4.69995E-001	7.04825E-011	0.00000E+000	4.69978E-001	0.00000E+000	5	...........	1366.97
	539	108	5.00048E-001	6.79482E-011	0.00000E+000	5.00021E-001	0.00000E+000	5	...........	1366.97
	542	108.6	5.30042E-001	6.80586E-011	0.00000E+000	5.30013E-001	0.00000E+000	5	...........	1366.97
	545	109.2	5.60038E-001	6.59878E-011	0.00000E+000	5.60005E-001	0.00000E+000	5	...........	1366.97
	548	109.8	5.90029E-001	6.46313E-011	0.00000E+000	5.89998E-001	0.00000E+000	5	...........	1366.97
	551	110.4	6.20027E-001	6.38605E-011	0.00000E+000	6.19990E-001	0.00000E+000	5	...........	1366.88
	554	111	6.50035E-001	6.18589E-011	0.00000E+000	6.49982E-001	0.00000E+000	5	...........	1366.95
	557	111.6	6.80075E-001	6.19182E-011	0.00000E+000	6.80025E-001	0.00000E+000	5	...........	1366.97
	560	112.2	7.10088E-001	6.48646E-011	0.00000E+000	7.10017E-001	0.00000E+000	5	...........	1366.97
	563	112.8	7.40068E-001	6.88219E-011	0.00000E+000	7.40009E-001	0.00000E+000	5	...........	1366.97
	566	113.4	7.70062E-001	8.30978E-011	0.00000E+000	7.70001E-001	0.00000E+000	5	...........	1366.97
	569	114	8.00054E-001	1.17240E-010	0.00000E+000	7.99994E-001	0.00000E+000	5	...........	1366.97
CURVE3	TABLE
	Pt	T	Vf	Im	Vu	Sig	Ach	IERange	Over	Temp
	#	s	V vs. Ref.	A	V	V	V	#	bits	deg C
	570	114.2	8.10042E-001	1.37888E-010	0.00000E+000	8.09991E-001	0.00000E+000	5	...........	1366.97
	571	114.4	8.20033E-001	1.67583E-010	0.00000E+000	8.19989E-001	0.00000E+000	5	...........	1366.97
	572	114.6	8.30033E-001	2.03369E-010	0.00000E+000	8.29986E-001	0.00000E+000	5	...........	1366.97
	573	114.8	8.40032E-001	2.47473E-010	0.00000E+000	8.39983E-001	0.00000E+000	5	...........	1366.97
	574	115	8.50029E-001	2.93401E-010	0.00000E+000	8.49981E-001	0.00000E+000	5	...........	1366.97
	575	115.2	8.60023E-001	3.45724E-010	0.00000E+000	8.59978E-001	0.00000E+000	5	...........	1366.97
	576	115.4	8.70053E-001	4.03447E-010	0.00000E+000	8.69976E-001	0.00000E+000	5	...........	1366.97
	577	115.6	8.80087E-001	4.68383E-010	0.00000E+000	8.80023E-001	0.00000E+000	5	...........	1366.97
	578	115.8	8.90081E-001	5.52272E-010	0.00000E+000	8.90021E-001	0.00000E+000	5	...........	1366.97