File: Test_Data_Files/20250509_X_IF0011_IIA42_E06_PBSair_PEDOT_CV5000.DTA
EXPLAIN
TAG	CV
TITLE	LABEL	CV5000	Test Identifier
DATE	LABEL	5/9/2025	Date
TIME	LABEL	15:18:09	Time
NOTES	NOTES	1	Notes...

PSTAT	PSTAT	REF600P-43058	Potentiostat
VINIT	POTEN	0.00000E+000	T	Initial E (V)
VLIMIT1	POTEN	-9.00000E-001	F	Scan Limit 1 (V)
VLIMIT2	POTEN	6.00000E-001	F	Scan Limit 2 (V)
VFINAL	POTEN	0.00000E+000	T	Final E (V)
SCANRATE	QUANT	4.99999E+003	Scan Rate (mV/s)
STEPSIZE	QUANT	1.00000E+001	Step Size (mV)
CYCLES	IQUANT	3	Cycles (#)
IMODE	SELECTOR	1	I/E Range Mode
IRANGE	QUANT	1.00000E-002	Max Current (mA)
AREA	QUANT	1.00000E+000	Sample Area (cm^2)
EQDELAY	QUANT	5.00000E+000	Equil. Time (s)
IRCOMP	SELECTOR	0	IRComp
PFCOR	QUANT	5.00000E+001	PF Corr. (ohm)
SAMPLINGMODE	SELECTOR	2	Sampling Mode
EOC	QUANT	0.1578626	Open Circuit (V)
ELECTRODETYPE	SELECTOR	0	Electrode Type
STRIPPING	TOGGLE	F	Used for Stripping
SEQUENCER	TOGGLE	TRUE	Run as Sequence
PSTATMODEL	IQUANT	7	Pstat Model
PSTATSECTION	LABEL	REF600P-43058	Pstat Section
PSTATSERIALNO	LABEL	43058	Pstat Serial Number
CTRLMODE	IQUANT	1	Control Mode
ELECTROMETER	IQUANT	0	RE=0 or CS=1
IESTAB	IQUANT	2	I/E Stability
CASPEED	IQUANT	4	Control Amp Speed
CONVENTION	IQUANT	1	Current Convention
ICHRANGE	IQUANT	2	Ich Range
ICHRANGEMODE	TOGGLE	F	Ich Auto Range
ICHOFFSETENABLE	TOGGLE	F	Ich Offset Enable
ICHOFFSET	QUANT	0	Ich Offset (V)
ICHFILTER	IQUANT	2	Ich Filter
VCHRANGE	IQUANT	2	Vch Range
VCHRANGEMODE	TOGGLE	F	Vch Auto Range
VCHOFFSETENABLE	TOGGLE	F	Vch Offset Enable
VCHOFFSET	QUANT	0	Vch Offset (V)
VCHFILTER	IQUANT	2	Vch Filter
ACHRANGE	IQUANT	2	Ach Range
ACHOFFSETENABLE	TOGGLE	F	Ach Offset Enable
ACHOFFSET	QUANT	0	Ach Offset (V)
ACHFILTER	IQUANT	1	Ach Filter
IERANGELOWERLIMIT	IQUANT	1	I/E Range Lower Limit
IERANGEMODE	TOGGLE	F	I/E AutoRange
IERANGE	IQUANT	7	I/E Range
POSFEEDENABLE	TOGGLE	F	Positive Feedback IR Comp
POSFEEDRESISTANCE	QUANT	0	Positive Feedback Resistance (ohm)
ACHSELECT	IQUANT	4	Ach Select
SENSECABLEID	IQUANT	7	Sense Cable ID
PWRCABLEID	IQUANT	7	Power Cable ID
DCCALDATE	LABEL	5/8/2025	DC Calibration Date
ACCALDATE	LABEL	5/8/2025	AC Calibration Date
THERMOSELECT	IQUANT	1	Thermo Select
FRAMEWORKVERSION	LABEL	7.10.4	Framework Version
INSTRUMENTVERSION	LABEL	5.01	Instrument Version
COMMVERSION	LABEL	5.10	Communications Version
CPUPLDVERSION	LABEL	6.00	CPU PLD Version
CTRLPLDVERSION	LABEL	3.21	CTRL PLD Version
PSTATPLDVERSION	LABEL	0.00	PSTAT PLD Version
CURVE1	TABLE
	Pt	T	Vf	Im	Vu	Sig	Ach	IERange	Over	Temp
	#	s	V vs. Ref.	A	V	V	V	#	bits	deg C
	0	0.002	1.57882E-001	9.42410E-009	0.00000E+000	1.57850E-001	1.39712E-003	7	...........	-327.66
	3	0.008	1.28678E-001	-1.29222E-006	0.00000E+000	1.27850E-001	1.39367E-003	7	...........	-327.66
	6	0.014	9.86575E-002	-1.84712E-006	0.00000E+000	9.78500E-002	1.44022E-003	7	...........	-327.66
	9	0.02	6.87394E-002	-2.26266E-006	0.00000E+000	6.78500E-002	1.42988E-003	7	...........	-327.66
	12	0.026	3.87264E-002	-2.60302E-006	0.00000E+000	3.78500E-002	1.40057E-003	7	...........	-327.66
	15	0.032	8.71524E-003	-2.89202E-006	0.00000E+000	7.84999E-003	1.47126E-003	7	...........	-327.66
	18	0.038	-2.13304E-002	-3.14313E-006	0.00000E+000	-2.21500E-002	1.39195E-003	7	...........	-327.66
	21	0.044	-5.12572E-002	-3.36681E-006	0.00000E+000	-5.21500E-002	1.39195E-003	7	...........	-327.66
	24	0.05	-8.13020E-002	-3.56648E-006	0.00000E+000	-8.21500E-002	1.41091E-003	7	...........	-327.66
	27	0.056	-1.11294E-001	-3.74881E-006	0.00000E+000	-1.12150E-001	1.49540E-003	7	...........	-327.66
	30	0.062	-1.41306E-001	-3.91790E-006	0.00000E+000	-1.42150E-001	1.47298E-003	7	...........	-327.66
	33	0.068	-1.71255E-001	-4.07668E-006	0.00000E+000	-1.72150E-001	1.39367E-003	7	...........	-327.66
	36	0.074	-2.01320E-001	-4.22727E-006	0.00000E+000	-2.02150E-001	1.37988E-003	7	...........	-327.66
	39	0.08	-2.31290E-001	-4.36834E-006	0.00000E+000	-2.32150E-001	1.46436E-003	7	...........	-327.66
	42	0.086	-2.61279E-001	-4.50362E-006	0.00000E+000	-2.62150E-001	1.45919E-003	7	...........	-327.66
	45	0.092	-2.91199E-001	-4.62898E-006	0.00000E+000	-2.92150E-001	1.49540E-003	7	...........	-327.66
	48	0.098	-3.21263E-001	-4.74424E-006	0.00000E+000	-3.22150E-001	1.42988E-003	7	...........	-327.66
	51	0.104	-3.51261E-001	-4.84743E-006	0.00000E+000	-3.52150E-001	1.41781E-003	7	...........	-327.66
	54	0.11	-3.81303E-001	-4.93523E-006	0.00000E+000	-3.82150E-001	1.41091E-003	7	...........	-327.66
	57	0.116	-4.11236E-001	-5.00816E-006	0.00000E+000	-4.12150E-001	1.40229E-003	7	...........	-327.66
	60	0.122	-4.41277E-001	-5.06599E-006	0.00000E+000	-4.42150E-001	1.40574E-003	7	...........	-327.66
	63	0.128	-4.71197E-001	-5.10683E-006	0.00000E+000	-4.72150E-001	1.47815E-003	7	...........	-327.66
	66	0.134	-5.01224E-001	-5.13509E-006	0.00000E+000	-5.02150E-001	1.43678E-003	7	...........	-327.66
	69	0.14	-5.31236E-001	-5.15168E-006	0.00000E+000	-5.32150E-001	1.41953E-003	7	...........	-327.66
	72	0.146	-5.61284E-001	-5.14740E-006	0.00000E+000	-5.62150E-001	1.47815E-003	7	...........	-327.66
	75	0.152	-5.91254E-001	-5.11515E-006	0.00000E+000	-5.92150E-001	1.44712E-003	7	...........	-327.66
	78	0.158	-6.21206E-001	-5.03007E-006	0.00000E+000	-6.22150E-001	1.44540E-003	7	...........	-327.66
	81	0.164	-6.51160E-001	-4.85301E-006	0.00000E+000	-6.52150E-001	1.46609E-003	7	...........	-327.66
	84	0.17	-6.81202E-001	-4.54594E-006	0.00000E+000	-6.82150E-001	1.39712E-003	7	...........	-327.66
	87	0.176	-7.11236E-001	-4.08075E-006	0.00000E+000	-7.12150E-001	1.41091E-003	7	...........	-327.66
	90	0.182	-7.41282E-001	-3.48160E-006	0.00000E+000	-7.42150E-001	1.48160E-003	7	...........	-327.66
	93	0.188	-7.71240E-001	-2.81508E-006	0.00000E+000	-7.72150E-001	1.38850E-003	7	...........	-327.66
	96	0.194	-8.01248E-001	-2.19953E-006	0.00000E+000	-8.02150E-001	1.45057E-003	7	...........	-327.66
	99	0.2	-8.31243E-001	-1.72536E-006	0.00000E+000	-8.32150E-001	1.44367E-003	7	...........	-327.66
	102	0.206	-8.61219E-001	-1.38773E-006	0.00000E+000	-8.62150E-001	1.40229E-003	7	...........	-327.66
	105	0.212	-8.91243E-001	-1.15354E-006	0.00000E+000	-8.92150E-001	1.38850E-003	7	...........	-327.66
	108	0.218	-8.82701E-001	-8.69316E-007	0.00000E+000	-8.82150E-001	1.38505E-003	7	...........	-327.66
	111	0.224	-8.52810E-001	-6.88447E-007	0.00000E+000	-8.52150E-001	1.42815E-003	7	...........	-327.66
	114	0.23	-8.22781E-001	-5.53256E-007	0.00000E+000	-8.22150E-001	1.46436E-003	7	...........	-327.66
	117	0.236	-7.92814E-001	-4.33309E-007	0.00000E+000	-7.92150E-001	1.41264E-003	7	...........	-327.66
	120	0.242	-7.62810E-001	-3.02256E-007	0.00000E+000	-7.62150E-001	1.46781E-003	7	...........	-327.66
	123	0.248	-7.32781E-001	-1.37372E-007	0.00000E+000	-7.32150E-001	1.41953E-003	7	...........	-327.66
	126	0.254	-7.02813E-001	8.37963E-008	0.00000E+000	-7.02150E-001	1.38678E-003	7	...........	-327.66
	129	0.26	-6.72823E-001	3.90442E-007	0.00000E+000	-6.72150E-001	1.40057E-003	7	...........	-327.66
	132	0.266	-6.42861E-001	8.14275E-007	0.00000E+000	-6.42150E-001	1.44367E-003	7	...........	-327.66
	135	0.272	-6.12829E-001	1.38680E-006	0.00000E+000	-6.12150E-001	1.50919E-003	7	...........	-327.66
	138	0.278	-5.82881E-001	2.12923E-006	0.00000E+000	-5.82150E-001	1.50747E-003	7	...........	-327.66
	141	0.284	-5.52856E-001	3.04734E-006	0.00000E+000	-5.52150E-001	1.43850E-003	7	...........	-327.66
	144	0.29	-5.22897E-001	4.04589E-006	0.00000E+000	-5.22150E-001	1.41091E-003	7	...........	-327.66
	147	0.296	-4.92858E-001	4.89269E-006	0.00000E+000	-4.92150E-001	1.43333E-003	7	...........	-327.66
	150	0.302	-4.62899E-001	5.30009E-006	0.00000E+000	-4.62150E-001	1.36264E-003	7	...........	-327.66
	153	0.308	-4.32888E-001	5.26462E-006	0.00000E+000	-4.32150E-001	1.44540E-003	7	...........	-327.66
	156	0.314	-4.02940E-001	5.03533E-006	0.00000E+000	-4.02150E-001	1.46609E-003	7	...........	-327.66
	159	0.32	-3.72865E-001	4.80089E-006	0.00000E+000	-3.72150E-001	1.45747E-003	7	...........	-327.66
	162	0.326	-3.42933E-001	4.63257E-006	0.00000E+000	-3.42150E-001	1.41781E-003	7	...........	-327.66
	165	0.332	-3.12920E-001	4.52592E-006	0.00000E+000	-3.12150E-001	1.40574E-003	7	...........	-327.66
	168	0.338	-2.82899E-001	4.46296E-006	0.00000E+000	-2.82150E-001	1.37643E-003	7	...........	-327.66
	171	0.344	-2.52874E-001	4.42653E-006	0.00000E+000	-2.52150E-001	1.49367E-003	7	...........	-327.66
	174	0.35	-2.22909E-001	4.39556E-006	0.00000E+000	-2.22150E-001	1.47298E-003	7	...........	-327.66
	177	0.356	-1.92952E-001	4.36681E-006	0.00000E+000	-1.92150E-001	1.44367E-003	7	...........	-327.66
	180	0.362	-1.62967E-001	4.34457E-006	0.00000E+000	-1.62150E-001	1.50057E-003	7	...........	-327.66
	183	0.368	-1.32908E-001	4.32693E-006	0.00000E+000	-1.32150E-001	1.43160E-003	7	...........	-327.66
	186	0.374	-1.02959E-001	4.31172E-006	0.00000E+000	-1.02150E-001	1.48505E-003	7	...........	-327.66
	189	0.38	-7.29417E-002	4.29840E-006	0.00000E+000	-7.21500E-002	1.44367E-003	7	...........	-327.66
	192	0.386	-4.29391E-002	4.28313E-006	0.00000E+000	-4.21500E-002	1.39712E-003	7	...........	-327.66
	195	0.392	-1.28710E-002	4.26554E-006	0.00000E+000	-1.21500E-002	1.45057E-003	7	...........	-327.66
	198	0.398	1.71299E-002	4.24440E-006	0.00000E+000	1.78500E-002	1.45402E-003	7	...........	-327.66
	201	0.404	4.70920E-002	4.21827E-006	0.00000E+000	4.78500E-002	1.46091E-003	7	...........	-327.66
	204	0.41	7.70652E-002	4.18803E-006	0.00000E+000	7.78500E-002	1.44367E-003	7	...........	-327.66
	207	0.416	1.07115E-001	4.15466E-006	0.00000E+000	1.07850E-001	1.39540E-003	7	...........	-327.66
	210	0.422	1.37097E-001	4.11957E-006	0.00000E+000	1.37850E-001	1.46781E-003	7	...........	-327.66
	213	0.428	1.67089E-001	4.08394E-006	0.00000E+000	1.67850E-001	1.46609E-003	7	...........	-327.66
	216	0.434	1.97083E-001	4.04684E-006	0.00000E+000	1.97850E-001	1.40402E-003	7	...........	-327.66
	219	0.44	2.27095E-001	4.01302E-006	0.00000E+000	2.27850E-001	1.47815E-003	7	...........	-327.66
	222	0.446	2.57059E-001	3.98050E-006	0.00000E+000	2.57850E-001	1.42988E-003	7	...........	-327.66
	225	0.452	2.87023E-001	3.95000E-006	0.00000E+000	2.87850E-001	1.42126E-003	7	...........	-327.66
	228	0.458	3.17040E-001	3.92558E-006	0.00000E+000	3.17850E-001	1.41436E-003	7	...........	-327.66
	231	0.464	3.47111E-001	3.90871E-006	0.00000E+000	3.47850E-001	1.42298E-003	7	...........	-327.66
	234	0.47	3.77047E-001	3.89956E-006	0.00000E+000	3.77850E-001	1.41436E-003	7	...........	-327.66
	237	0.476	4.07067E-001	3.90006E-006	0.00000E+000	4.07850E-001	1.49712E-003	7	...........	-327.66
	240	0.482	4.37006E-001	3.91035E-006	0.00000E+000	4.37850E-001	1.36953E-003	7	...........	-327.66
	243	0.488	4.67044E-001	3.93018E-006	0.00000E+000	4.67850E-001	1.42298E-003	7	...........	-327.66
	246	0.494	4.97029E-001	3.96126E-006	0.00000E+000	4.97850E-001	1.41781E-003	7	...........	-327.66
	249	0.5	5.27051E-001	4.00050E-006	0.00000E+000	5.27850E-001	1.42643E-003	7	...........	-327.66
	252	0.506	5.57024E-001	4.05056E-006	0.00000E+000	5.57850E-001	1.42471E-003	7	...........	-327.66
	255	0.512	5.87057E-001	4.11514E-006	0.00000E+000	5.87850E-001	1.41609E-003	7	...........	-327.66
	256	0.514	5.97001E-001	4.13949E-006	0.00000E+000	5.97850E-001	1.42643E-003	7	...........	-327.66
CURVE2	TABLE
	Pt	T	Vf	Im	Vu	Sig	Ach	IERange	Over	Temp
	#	s	V vs. Ref.	A	V	V	V	#	bits	deg C
	257	0.516	5.90577E-001	2.94136E-006	0.00000E+000	5.90000E-001	1.39884E-003	7	...........	-327.66
	260	0.522	5.60755E-001	1.16413E-006	0.00000E+000	5.60000E-001	1.41436E-003	7	...........	-327.66
	263	0.528	5.30785E-001	1.69411E-007	0.00000E+000	5.30000E-001	1.43333E-003	7	...........	-327.66
	266	0.534	5.00837E-001	-5.54636E-007	0.00000E+000	5.00000E-001	1.47815E-003	7	...........	-327.66
	269	0.54	4.70802E-001	-1.11751E-006	0.00000E+000	4.70000E-001	1.37988E-003	7	...........	-327.66
	272	0.546	4.40768E-001	-1.56922E-006	0.00000E+000	4.40000E-001	1.43333E-003	7	...........	-327.66
	275	0.552	4.10772E-001	-1.93931E-006	0.00000E+000	4.10000E-001	1.39022E-003	7	...........	-327.66
	278	0.558	3.80807E-001	-2.24940E-006	0.00000E+000	3.80000E-001	1.49712E-003	7	...........	-327.66
	281	0.564	3.50822E-001	-2.51409E-006	0.00000E+000	3.50000E-001	1.45574E-003	7	...........	-327.66
	284	0.57	3.20810E-001	-2.74142E-006	0.00000E+000	3.20000E-001	1.37126E-003	7	...........	-327.66
	287	0.576	2.90801E-001	-2.94070E-006	0.00000E+000	2.90000E-001	1.41781E-003	7	...........	-327.66
	290	0.582	2.60812E-001	-3.11997E-006	0.00000E+000	2.60000E-001	1.46781E-003	7	...........	-327.66
	293	0.588	2.30801E-001	-3.28130E-006	0.00000E+000	2.30000E-001	1.46781E-003	7	...........	-327.66
	296	0.594	2.00814E-001	-3.42815E-006	0.00000E+000	2.00000E-001	1.46953E-003	7	...........	-327.66
	299	0.6	1.70883E-001	-3.56470E-006	0.00000E+000	1.70000E-001	1.42988E-003	7	...........	-327.66
	302	0.606	1.40890E-001	-3.69155E-006	0.00000E+000	1.40000E-001	1.44712E-003	7	...........	-327.66
	305	0.612	1.10832E-001	-3.80818E-006	0.00000E+000	1.10000E-001	1.46609E-003	7	...........	-327.66
	308	0.618	8.07997E-002	-3.91782E-006	0.00000E+000	8.00000E-002	1.44195E-003	7	...........	-327.66
	311	0.624	5.08273E-002	-4.01833E-006	0.00000E+000	5.00000E-002	1.43333E-003	7	...........	-327.66
	314	0.63	2.08359E-002	-4.11229E-006	0.00000E+000	2.00000E-002	1.41436E-003	7	...........	-327.66
	317	0.636	-9.13562E-003	-4.19901E-006	0.00000E+000	-1.00000E-002	1.42126E-003	7	...........	-327.66
	320	0.642	-3.91417E-002	-4.28004E-006	0.00000E+000	-4.00000E-002	1.48678E-003	7	...........	-327.66
	323	0.648	-6.91184E-002	-4.35371E-006	0.00000E+000	-7.00000E-002	1.40402E-003	7	...........	-327.66
	326	0.654	-9.91649E-002	-4.42225E-006	0.00000E+000	-1.00000E-001	1.51264E-003	7	...........	-327.66
	329	0.66	-1.29181E-001	-4.48440E-006	0.00000E+000	-1.30000E-001	1.44540E-003	7	...........	-327.66
	332	0.666	-1.59189E-001	-4.53925E-006	0.00000E+000	-1.60000E-001	1.48850E-003	7	...........	-327.66
	335	0.672	-1.89095E-001	-4.58824E-006	0.00000E+000	-1.90000E-001	1.41264E-003	7	...........	-327.66
	338	0.678	-2.19099E-001	-4.63123E-006	0.00000E+000	-2.20000E-001	1.47643E-003	7	...........	-327.66
	341	0.684	-2.49115E-001	-4.66514E-006	0.00000E+000	-2.50000E-001	1.50919E-003	7	...........	-327.66
	344	0.69	-2.79154E-001	-4.69079E-006	0.00000E+000	-2.80000E-001	1.42643E-003	7	...........	-327.66
	347	0.696	-3.09153E-001	-4.70689E-006	0.00000E+000	-3.10000E-001	1.43160E-003	7	...........	-327.66
	350	0.702	-3.39163E-001	-4.71493E-006	0.00000E+000	-3.40000E-001	1.45229E-003	7	...........	-327.66
	353	0.708	-3.69024E-001	-4.71658E-006	0.00000E+000	-3.70000E-001	1.46781E-003	7	...........	-327.66
	356	0.714	-3.99134E-001	-4.71267E-006	0.00000E+000	-4.00000E-001	1.40229E-003	7	...........	-327.66
	359	0.72	-4.29115E-001	-4.70434E-006	0.00000E+000	-4.30000E-001	1.46781E-003	7	...........	-327.66
	362	0.726	-4.59145E-001	-4.69404E-006	0.00000E+000	-4.60000E-001	1.47643E-003	7	...........	-327.66
	365	0.732	-4.89113E-001	-4.68051E-006	0.00000E+000	-4.90000E-001	1.45919E-003	7	...........	-327.66
	368	0.738	-5.19156E-001	-4.66808E-006	0.00000E+000	-5.20000E-001	1.41264E-003	7	...........	-327.66
	371	0.744	-5.49102E-001	-4.64299E-006	0.00000E+000	-5.50000E-001	1.39022E-003	7	...........	-327.66
	374	0.75	-5.79078E-001	-4.59650E-006	0.00000E+000	-5.80000E-001	1.40402E-003	7	...........	-327.66
	377	0.756	-6.09141E-001	-4.50736E-006	0.00000E+000	-6.10000E-001	1.42126E-003	7	...........	-327.66
	380	0.762	-6.39133E-001	-4.34293E-006	0.00000E+000	-6.40000E-001	1.44367E-003	7	...........	-327.66
	383	0.768	-6.69054E-001	-4.07261E-006	0.00000E+000	-6.70000E-001	1.42643E-003	7	...........	-327.66
	386	0.774	-6.99106E-001	-3.68599E-006	0.00000E+000	-7.00000E-001	1.41091E-003	7	...........	-327.66
	389	0.78	-7.29056E-001	-3.18934E-006	0.00000E+000	-7.30000E-001	1.46953E-003	7	...........	-327.66
	392	0.786	-7.59099E-001	-2.65347E-006	0.00000E+000	-7.60000E-001	1.41091E-003	7	...........	-327.66
	395	0.792	-7.89102E-001	-2.14411E-006	0.00000E+000	-7.90000E-001	1.42471E-003	7	...........	-327.66
	398	0.798	-8.19149E-001	-1.72438E-006	0.00000E+000	-8.20000E-001	1.49367E-003	7	...........	-327.66
	401	0.804	-8.49129E-001	-1.40906E-006	0.00000E+000	-8.50000E-001	1.44712E-003	7	...........	-327.66
	404	0.81	-8.79124E-001	-1.19033E-006	0.00000E+000	-8.80000E-001	1.42471E-003	7	...........	-327.66
	407	0.816	-8.90691E-001	-9.53276E-007	0.00000E+000	-8.90000E-001	1.41953E-003	7	...........	-327.66
	410	0.822	-8.60662E-001	-7.34815E-007	0.00000E+000	-8.60000E-001	1.46953E-003	7	...........	-327.66
	413	0.828	-8.30653E-001	-5.88537E-007	0.00000E+000	-8.30000E-001	1.35919E-003	7	...........	-327.66
	416	0.834	-8.00696E-001	-4.63399E-007	0.00000E+000	-8.00000E-001	1.41264E-003	7	...........	-327.66
	419	0.84	-7.70620E-001	-3.30036E-007	0.00000E+000	-7.70000E-001	1.40574E-003	7	...........	-327.66
	422	0.846	-7.40732E-001	-1.68893E-007	0.00000E+000	-7.40000E-001	1.35919E-003	7	...........	-327.66
	425	0.852	-7.10682E-001	4.54635E-008	0.00000E+000	-7.10000E-001	1.46264E-003	7	...........	-327.66
	428	0.858	-6.80682E-001	3.39883E-007	0.00000E+000	-6.80000E-001	1.47298E-003	7	...........	-327.66
	431	0.864	-6.50722E-001	7.46904E-007	0.00000E+000	-6.50000E-001	1.42815E-003	7	...........	-327.66
	434	0.87	-6.20713E-001	1.29788E-006	0.00000E+000	-6.20000E-001	1.35919E-003	7	...........	-327.66
	437	0.876	-5.90753E-001	2.01801E-006	0.00000E+000	-5.90000E-001	1.45402E-003	7	...........	-327.66
[...]
	734	1.47	-6.20692E-001	1.33826E-006	0.00000E+000	-6.20000E-001	1.46781E-003	7	...........	-327.66
	737	1.476	-5.90712E-001	2.06826E-006	0.00000E+000	-5.90000E-001	1.49367E-003	7	...........	-327.66
	740	1.482	-5.60759E-001	2.96443E-006	0.00000E+000	-5.60000E-001	1.41264E-003	7	...........	-327.66
	743	1.488	-5.30775E-001	3.95924E-006	0.00000E+000	-5.30000E-001	1.40574E-003	7	...........	-327.66
	746	1.494	-5.00723E-001	4.81782E-006	0.00000E+000	-5.00000E-001	1.44195E-003	7	...........	-327.66
	749	1.5	-4.70709E-001	5.24150E-006	0.00000E+000	-4.70000E-001	1.41436E-003	7	...........	-327.66
	752	1.506	-4.40766E-001	5.19625E-006	0.00000E+000	-4.40000E-001	1.48160E-003	7	...........	-327.66
	755	1.512	-4.10767E-001	4.94399E-006	0.00000E+000	-4.10000E-001	1.39195E-003	7	...........	-327.66
	758	1.518	-3.80780E-001	4.69261E-006	0.00000E+000	-3.80000E-001	1.44540E-003	7	...........	-327.66
	761	1.524	-3.50766E-001	4.51771E-006	0.00000E+000	-3.50000E-001	1.45057E-003	7	...........	-327.66
	764	1.53	-3.20796E-001	4.41647E-006	0.00000E+000	-3.20000E-001	1.43505E-003	7	...........	-327.66
	767	1.536	-2.90780E-001	4.35897E-006	0.00000E+000	-2.90000E-001	1.39195E-003	7	...........	-327.66
	770	1.542	-2.60782E-001	4.31761E-006	0.00000E+000	-2.60000E-001	1.45229E-003	7	...........	-327.66
	773	1.548	-2.30778E-001	4.28952E-006	0.00000E+000	-2.30000E-001	1.45229E-003	7	...........	-327.66
	776	1.554	-2.00809E-001	4.26787E-006	0.00000E+000	-2.00000E-001	1.44195E-003	7	...........	-327.66
	779	1.56	-1.70794E-001	4.25281E-006	0.00000E+000	-1.70000E-001	1.47298E-003	7	...........	-327.66
	782	1.566	-1.40786E-001	4.24167E-006	0.00000E+000	-1.40000E-001	1.42471E-003	7	...........	-327.66
	785	1.572	-1.10799E-001	4.23291E-006	0.00000E+000	-1.10000E-001	1.41091E-003	7	...........	-327.66
	788	1.578	-8.08106E-002	4.22507E-006	0.00000E+000	-8.00000E-002	1.46781E-003	7	...........	-327.66
	791	1.584	-5.08184E-002	4.21565E-006	0.00000E+000	-5.00000E-002	1.47126E-003	7	...........	-327.66
	794	1.59	-2.07994E-002	4.20475E-006	0.00000E+000	-2.00000E-002	1.47988E-003	7	...........	-327.66
	797	1.596	9.23593E-003	4.19206E-006	0.00000E+000	9.99999E-003	1.38678E-003	7	...........	-327.66
	800	1.602	3.91816E-002	4.17403E-006	0.00000E+000	4.00000E-002	1.46264E-003	7	...........	-327.66
	803	1.608	6.92290E-002	4.15097E-006	0.00000E+000	7.00000E-002	1.50057E-003	7	...........	-327.66
	806	1.614	9.92195E-002	4.12485E-006	0.00000E+000	1.00000E-001	1.42988E-003	7	...........	-327.66
	809	1.62	1.29242E-001	4.09579E-006	0.00000E+000	1.30000E-001	1.44022E-003	7	...........	-327.66
	812	1.626	1.59202E-001	4.06603E-006	0.00000E+000	1.60000E-001	1.46609E-003	7	...........	-327.66
	815	1.632	1.89242E-001	4.03639E-006	0.00000E+000	1.90000E-001	1.40057E-003	7	...........	-327.66
	818	1.638	2.19187E-001	4.00656E-006	0.00000E+000	2.20000E-001	1.40402E-003	7	...........	-327.66
	821	1.644	2.49243E-001	3.97924E-006	0.00000E+000	2.50000E-001	1.45574E-003	7	...........	-327.66
	824	1.65	2.79168E-001	3.95420E-006	0.00000E+000	2.80000E-001	1.43850E-003	7	...........	-327.66
	827	1.656	3.09184E-001	3.93451E-006	0.00000E+000	3.10000E-001	1.45747E-003	7	...........	-327.66
	830	1.662	3.39177E-001	3.92099E-006	0.00000E+000	3.40000E-001	1.41609E-003	7	...........	-327.66
	833	1.668	3.69197E-001	3.91594E-006	0.00000E+000	3.70000E-001	1.49367E-003	7	...........	-327.66
	836	1.674	3.99192E-001	3.91713E-006	0.00000E+000	4.00000E-001	1.44712E-003	7	...........	-327.66
	839	1.68	4.29185E-001	3.92977E-006	0.00000E+000	4.30000E-001	1.47643E-003	7	...........	-327.66
	842	1.686	4.59195E-001	3.95182E-006	0.00000E+000	4.60000E-001	1.43850E-003	7	...........	-327.66
	845	1.692	4.89162E-001	3.98528E-006	0.00000E+000	4.90000E-001	1.43678E-003	7	...........	-327.66
	848	1.698	5.19163E-001	4.03101E-006	0.00000E+000	5.20000E-001	1.45057E-003	7	...........	-327.66
	851	1.704	5.49198E-001	4.08684E-006	0.00000E+000	5.50000E-001	1.37298E-003	7	...........	-327.66
	854	1.71	5.79179E-001	4.15385E-006	0.00000E+000	5.80000E-001	1.47471E-003	7	...........	-327.66
	856	1.714	5.99179E-001	4.20322E-006	0.00000E+000	6.00000E-001	1.43505E-003	7	...........	-327.66
CURVE4	TABLE
	Pt	T	Vf	Im	Vu	Sig	Ach	IERange	Over	Temp
	#	s	V vs. Ref.	A	V	V	V	#	bits	deg C
	857	1.716	5.90738E-001	2.82103E-006	0.00000E+000	5.90000E-001	1.39540E-003	7	...........	-327.66
	858	1.718	5.80775E-001	2.06658E-006	0.00000E+000	5.80000E-001	1.41609E-003	7	...........	-327.66
	859	1.72	5.70748E-001	1.51575E-006	0.00000E+000	5.70000E-001	1.41781E-003	7	...........	-327.66
	860	1.722	5.60742E-001	1.06617E-006	0.00000E+000	5.60000E-001	1.40057E-003	7	...........	-327.66
	861	1.724	5.50776E-001	6.82205E-007	0.00000E+000	5.50000E-001	1.45402E-003	7	...........	-327.66
	862	1.726	5.40767E-001	3.46608E-007	0.00000E+000	5.40000E-001	1.39367E-003	7	...........	-327.66
	863	1.728	5.30789E-001	4.72051E-008	0.00000E+000	5.30000E-001	1.45057E-003	7	...........	-327.66
	864	1.73	5.20767E-001	-2.21952E-007	0.00000E+000	5.20000E-001	1.40919E-003	7	...........	-327.66
	865	1.732	5.10771E-001	-4.65830E-007	0.00000E+000	5.10000E-001	1.46609E-003	7	...........	-327.66
	866	1.734	5.00818E-001	-6.88464E-007	0.00000E+000	5.00000E-001	1.38333E-003	7	...........	-327.66
	867	1.736	4.90767E-001	-8.92406E-007	0.00000E+000	4.90000E-001	1.42126E-003	7	...........	-327.66
	868	1.738	4.80733E-001	-1.08172E-006	0.00000E+000	4.80000E-001	1.44540E-003	7	...........	-327.66
	869	1.74	4.70778E-001	-1.25449E-006	0.00000E+000	4.70000E-001	1.43333E-003	7	...........	-327.66
	870	1.742	4.60779E-001	-1.41494E-006	0.00000E+000	4.60000E-001	1.46953E-003	7	...........	-327.66
	871	1.744	4.50821E-001	-1.56529E-006	0.00000E+000	4.50000E-001	1.43850E-003	7	...........	-327.66
	872	1.746	4.40751E-001	-1.70472E-006	0.00000E+000	4.40000E-001	1.40057E-003	7	...........	-327.66
	873	1.748	4.30789E-001	-1.83421E-006	0.00000E+000	4.30000E-001	1.38333E-003	7	...........	-327.66
	874	1.75	4.20826E-001	-1.95655E-006	0.00000E+000	4.20000E-001	1.42471E-003	7	...........	-327.66
	875	1.752	4.10751E-001	-2.07019E-006	0.00000E+000	4.10000E-001	1.43505E-003	7	...........	-327.66
	876	1.754	4.00793E-001	-2.17813E-006	0.00000E+000	4.00000E-001	1.42643E-003	7	...........	-327.66
	877	1.756	3.90794E-001	-2.27920E-006	0.00000E+000	3.90000E-001	1.38850E-003	7	...........	-327.66
	878	1.758	3.80810E-001	-2.37478E-006	0.00000E+000	3.80000E-001	1.43678E-003	7	...........	-327.66
	879	1.76	3.70820E-001	-2.46434E-006	0.00000E+000	3.70000E-001	1.42298E-003	7	...........	-327.66
	880	1.762	3.60771E-001	-2.54965E-006	0.00000E+000	3.60000E-001	1.44712E-003	7	...........	-327.66
	881	1.764	3.50822E-001	-2.63080E-006	0.00000E+000	3.50000E-001	1.43333E-003	7	...........	-327.66
	882	1.766	3.40831E-001	-2.70677E-006	0.00000E+000	3.40000E-001	1.45919E-003	7	...........	-327.66
	883	1.768	3.30826E-001	-2.77971E-006	0.00000E+000	3.30000E-001	1.45574E-003	7	...........	-327.66
	884	1.77	3.20806E-001	-2.85016E-006	0.00000E+000	3.20000E-001	1.42815E-003	7	...........	-327.66
	885	1.772	3.10802E-001	-2.91694E-006	0.00000E+000	3.10000E-001	1.39540E-003	7	...........	-327.66
	886	1.774	3.00806E-001	-2.98143E-006	0.00000E+000	3.00000E-001	1.41264E-003	7	...........	-327.66
	887	1.776	2.90804E-001	-3.04220E-006	0.00000E+000	2.90000E-001	1.41436E-003	7	...........	-327.66
	888	1.778	2.80778E-001	-3.10014E-006	0.00000E+000	2.80000E-001	1.42471E-003	7	...........	-327.66
	889	1.78	2.70826E-001	-3.15665E-006	0.00000E+000	2.70000E-001	1.38333E-003	7	...........	-327.66
	890	1.782	2.60794E-001	-3.21210E-006	0.00000E+000	2.60000E-001	1.42471E-003	7	...........	-327.66
	891	1.784	2.50826E-001	-3.26299E-006	0.00000E+000	2.50000E-001	1.39367E-003	7	...........	-327.66
	892	1.786	2.40798E-001	-3.31410E-006	0.00000E+000	2.40000E-001	1.40574E-003	7	...........	-327.66
	893	1.788	2.30807E-001	-3.36307E-006	0.00000E+000	2.30000E-001	1.42471E-003	7	...........	-327.66
	894	1.79	2.20832E-001	-3.41137E-006	0.00000E+000	2.20000E-001	1.40057E-003	7	...........	-327.66
	895	1.792	2.10784E-001	-3.45812E-006	0.00000E+000	2.10000E-001	1.40402E-003	7	...........	-327.66
	896	1.794	2.00816E-001	-3.50261E-006	0.00000E+000	2.00000E-001	1.45919E-003	7	...........	-327.66
	897	1.796	1.90832E-001	-3.54527E-006	0.00000E+000	1.90000E-001	1.49712E-003	7	...........	-327.66
	898	1.798	1.80822E-001	-3.58793E-006	0.00000E+000	1.80000E-001	1.48505E-003	7	...........	-327.66
	899	1.8	1.70876E-001	-3.62942E-006	0.00000E+000	1.70000E-001	1.43850E-003	7	...........	-327.66
	900	1.802	1.60820E-001	-3.66934E-006	0.00000E+000	1.60000E-001	1.40402E-003	7	...........	-327.66