File: Test_Data_Files/20250424_D_CHI105_2mmAu_E000_PBSarg_CV100.DTA
EXPLAIN
TAG	CV
TITLE	LABEL	Cyclic Voltammetry	Test &Identifier
DATE	LABEL	4/24/2025	Date
TIME	LABEL	16:56:58	Time
NOTES	NOTES	3	&Notes...

PSTAT	PSTAT	IFC1010-32247	Potentiostat
VINIT	POTEN	0.00000E+000	T	Initial &E (V)
VLIMIT1	POTEN	-6.00000E-001	F	Scan Limit &1 (V)
VLIMIT2	POTEN	8.00000E-001	F	Scan Limit &2 (V)
VFINAL	POTEN	0.00000E+000	T	Final &E (V)
SCANRATE	QUANT	9.99998E+001	&Scan Rate (mV/s)
STEPSIZE	QUANT	1.00000E+001	St&ep Size (mV)
CYCLES	IQUANT	3	C&ycles (#)
IMODE	SELECTOR	1	I/E Range &Mode
IRANGE	QUANT	1.00000E-002	&Max Current (mA)
AREA	QUANT	1.00000E+000	Electrode &Area (cm^2)
ELECTRODETYPE	SELECTOR	0	Electrode Type
STRIPPING	TOGGLE	F	Used for Stripping
CONDIT	TWOPARAM	F	1.50000E+001	0.00000E+000	Conditionin&g	Time(s)	E(V)
DELAY	TWOPARAM	T	1.50000E+001	0.00000E+000	Init. De&lay	Time(s)	Stab.(mV/s)
EQDELAY	QUANT	0.00000E+000	Equil. &Time (s)
IRCOMP	SELECTOR	0	IRCom&p
PFCOR	QUANT	5.00000E+001	PF Corr. (ohm)
SAMPLINGMODE	SELECTOR	2	Sampling &Mode
OCVCURVE	TABLE	58
	Pt	T	Vf	Vm	Ach	Over	Temp
	#	s	V vs. Ref.	V	V	bits	deg C
	0	0.258333	2.49770E-001	2.49770E-001	0.00000E+000	...........	1367.91
	1	0.516667	2.49769E-001	2.49702E-001	0.00000E+000	...........	1367.48
	2	0.775	2.49761E-001	2.49657E-001	0.00000E+000	...........	1367.48
	3	1.03333	2.49741E-001	2.49598E-001	0.00000E+000	...........	1367.48
	4	1.29167	2.49705E-001	2.49537E-001	0.00000E+000	...........	1367.48
	5	1.55	2.49657E-001	2.49485E-001	0.00000E+000	...........	1367.83
	6	1.80833	2.49602E-001	2.49418E-001	0.00000E+000	...........	1367.83
	7	2.06667	2.49545E-001	2.49383E-001	0.00000E+000	...........	1367.83
	8	2.325	2.49488E-001	2.49312E-001	0.00000E+000	...........	1367.83
	9	2.58333	2.49432E-001	2.49273E-001	0.00000E+000	...........	1367.91
	10	2.84167	2.49377E-001	2.49192E-001	0.00000E+000	...........	1367.91
	11	3.1	2.49322E-001	2.49152E-001	0.00000E+000	...........	1367.91
	12	3.35833	2.49266E-001	2.49107E-001	0.00000E+000	...........	1367.91
	13	3.61667	2.49211E-001	2.49054E-001	0.00000E+000	...........	1367.91
	14	3.875	2.49158E-001	2.48991E-001	0.00000E+000	...........	1367.91
	15	4.13333	2.49106E-001	2.48929E-001	0.00000E+000	...........	1367.91
	16	4.39167	2.49052E-001	2.48864E-001	0.00000E+000	...........	1367.91
	17	4.65	2.48994E-001	2.48821E-001	0.00000E+000	...........	1367.91
	18	4.90833	2.48935E-001	2.48765E-001	0.00000E+000	...........	1367.91
	19	5.16667	2.48878E-001	2.48718E-001	0.00000E+000	...........	1367.91
	20	5.425	2.48823E-001	2.48656E-001	0.00000E+000	...........	1367.91
	21	5.68333	2.48770E-001	2.48608E-001	0.00000E+000	...........	1367.91
	22	5.94167	2.48717E-001	2.48537E-001	0.00000E+000	...........	1367.91
	23	6.2	2.48662E-001	2.48488E-001	0.00000E+000	...........	1367.91
	24	6.45833	2.48606E-001	2.48433E-001	0.00000E+000	...........	1367.91
	25	6.71667	2.48549E-001	2.48373E-001	0.00000E+000	...........	1367.91
	26	6.975	2.48492E-001	2.48322E-001	0.00000E+000	...........	1367.91
	27	7.23333	2.48436E-001	2.48281E-001	0.00000E+000	...........	1367.91
	28	7.49167	2.48382E-001	2.48212E-001	0.00000E+000	...........	1367.87
	29	7.75	2.48329E-001	2.48168E-001	0.00000E+000	...........	1367.83
	30	8.00833	2.48276E-001	2.48106E-001	0.00000E+000	...........	1367.83
	31	8.26667	2.48222E-001	2.48039E-001	0.00000E+000	...........	1367.83
	32	8.525	2.48166E-001	2.47989E-001	0.00000E+000	...........	1367.83
	33	8.78333	2.48108E-001	2.47948E-001	0.00000E+000	...........	1367.83
	34	9.04167	2.48051E-001	2.47879E-001	0.00000E+000	...........	1367.83
	35	9.3	2.47996E-001	2.47826E-001	0.00000E+000	...........	1367.83
	36	9.5583	2.47942E-001	2.47788E-001	0.00000E+000	...........	1367.83
	37	9.8167	2.47889E-001	2.47732E-001	0.00000E+000	...........	1367.83
	38	10.075	2.47837E-001	2.47673E-001	0.00000E+000	...........	1367.83
	39	10.3333	2.47785E-001	2.47615E-001	0.00000E+000	...........	1367.83
	40	10.5917	2.47733E-001	2.47569E-001	0.00000E+000	...........	1367.91
	41	10.85	2.47678E-001	2.47519E-001	0.00000E+000	...........	1367.91
	42	11.1083	2.47625E-001	2.47464E-001	0.00000E+000	...........	1367.91
	43	11.3667	2.47572E-001	2.47397E-001	0.00000E+000	...........	1367.91
	44	11.625	2.47519E-001	2.47360E-001	0.00000E+000	...........	1367.91
	45	11.8833	2.47465E-001	2.47308E-001	0.00000E+000	...........	1367.91
	46	12.1417	2.47412E-001	2.47245E-001	0.00000E+000	...........	1367.91
	47	12.4	2.47360E-001	2.47191E-001	0.00000E+000	...........	1367.91
	48	12.6583	2.47307E-001	2.47148E-001	0.00000E+000	...........	1367.91
	49	12.9167	2.47253E-001	2.47099E-001	0.00000E+000	...........	1367.91
	50	13.175	2.47201E-001	2.47046E-001	0.00000E+000	...........	1367.91
	51	13.4333	2.47151E-001	2.47006E-001	0.00000E+000	...........	1367.91
	52	13.6917	2.47102E-001	2.46953E-001	0.00000E+000	...........	1367.91
	53	13.95	2.47053E-001	2.46906E-001	0.00000E+000	...........	1367.91
	54	14.2083	2.47005E-001	2.46847E-001	0.00000E+000	...........	1367.91
	55	14.4667	2.46956E-001	2.46804E-001	0.00000E+000	...........	1367.89
	56	14.725	2.46906E-001	2.46737E-001	0.00000E+000	...........	1367.48
	57	14.9833	2.46854E-001	2.46695E-001	0.00000E+000	...........	1367.48
EOC	QUANT	0.2468544	Open Circuit (V)
PSTATMODEL	IQUANT	64	Pstat Model
PSTATSECTION	LABEL	IFC1010-32247	Pstat Section
PSTATSERIALNO	LABEL	32247	Pstat Serial Number
CTRLMODE	IQUANT	1	Control Mode
ELECTROMETER	IQUANT	0	RE=0 or CS=1
IESTAB	IQUANT	2	I/E Stability
CASPEED	IQUANT	4	Control Amp Speed
CONVENTION	IQUANT	1	Current Convention
ICHRANGE	IQUANT	2	Ich Range
ICHRANGEMODE	TOGGLE	F	Ich Auto Range
ICHOFFSETENABLE	TOGGLE	F	Ich Offset Enable
ICHOFFSET	QUANT	0	Ich Offset (V)
ICHFILTER	IQUANT	3	Ich Filter
VCHRANGE	IQUANT	2	Vch Range
VCHRANGEMODE	TOGGLE	F	Vch Auto Range
VCHOFFSETENABLE	TOGGLE	F	Vch Offset Enable
VCHOFFSET	QUANT	0	Vch Offset (V)
VCHFILTER	IQUANT	3	Vch Filter
IERANGELOWERLIMIT	IQUANT	4	I/E Range Lower Limit
IERANGEMODE	TOGGLE	F	I/E AutoRange
IERANGE	IQUANT	8	I/E Range
ACHSELECT	IQUANT	0	Ach Select
ACHRANGE	IQUANT	2	Ach Range
ACHOFFSETENABLE	TOGGLE	F	Ach Offset Enable
ACHOFFSET	QUANT	0	Ach Offset (V)
ACHFILTER	IQUANT	1	Ach Filter
SENSECABLEID	IQUANT	14	Sense Cable ID
PWRCABLEID	IQUANT	14	Power Cable ID
DCCALDATE	LABEL	11/18/2024	DC Calibration Date
ACCALDATE	LABEL	4/18/2022	AC Calibration Date
FRAMEWORKVERSION	LABEL	7.10.3	Framework Version
INSTRUMENTVERSION	LABEL	4.91	Instrument Version
COMMVERSION	LABEL	3.10	Communications Version
CPUPLDVERSION	LABEL	2.22	CPU PLD Version
CTRLPLDVERSION	LABEL	0.00	CTRL PLD Version
PSTATPLDVERSION	LABEL	0.00	PSTAT PLD Version
CURVE1	TABLE
	Pt	T	Vf	Im	Vu	Sig	Ach	IERange	Over	Temp
	#	s	V vs. Ref.	A	V	V	V	#	bits	deg C
	0	0.1	2.46881E-001	-5.34373E-010	0.00000E+000	2.46836E-001	0.00000E+000	8	...........	1367.57
	3	0.4	2.16880E-001	-6.49495E-007	0.00000E+000	2.16843E-001	0.00000E+000	8	...........	1367.57
	6	0.7	1.86908E-001	-6.59438E-007	0.00000E+000	1.86851E-001	0.00000E+000	8	...........	1367.57
	9	1	1.56924E-001	-6.50097E-007	0.00000E+000	1.56859E-001	0.00000E+000	8	...........	1367.91
	12	1.3	1.26900E-001	-6.32362E-007	0.00000E+000	1.26866E-001	0.00000E+000	8	...........	1367.91
	15	1.6	9.69236E-002	-6.34791E-007	0.00000E+000	9.68742E-002	0.00000E+000	8	...........	1367.91
	18	1.9	6.68728E-002	-6.52003E-007	0.00000E+000	6.68319E-002	0.00000E+000	8	...........	1367.31
	21	2.2	3.68863E-002	-6.70157E-007	0.00000E+000	3.68395E-002	0.00000E+000	8	...........	1367.31
	24	2.5	6.88837E-003	-6.94902E-007	0.00000E+000	6.84722E-003	0.00000E+000	8	...........	1367.31
	27	2.8	-2.31222E-002	-7.27118E-007	0.00000E+000	-2.31451E-002	0.00000E+000	8	...........	1367.31
	30	3.1	-5.31280E-002	-7.55424E-007	0.00000E+000	-5.31374E-002	0.00000E+000	8	...........	1367.31
	33	3.4	-8.31168E-002	-7.76050E-007	0.00000E+000	-8.31297E-002	0.00000E+000	8	...........	1367.31
	36	3.7	-1.13096E-001	-8.14392E-007	0.00000E+000	-1.13122E-001	0.00000E+000	8	...........	1367.31
	39	4	-1.43141E-001	-8.71155E-007	0.00000E+000	-1.43164E-001	0.00000E+000	8	...........	1367.31
	42	4.3	-1.73123E-001	-9.27902E-007	0.00000E+000	-1.73157E-001	0.00000E+000	8	...........	1367.31
	45	4.6	-2.03126E-001	-9.66623E-007	0.00000E+000	-2.03149E-001	0.00000E+000	8	...........	1367.31
	48	4.9	-2.33135E-001	-9.82502E-007	0.00000E+000	-2.33141E-001	0.00000E+000	8	...........	1367.31
	51	5.2	-2.63122E-001	-9.82704E-007	0.00000E+000	-2.63134E-001	0.00000E+000	8	...........	1367.31
	54	5.5	-2.93105E-001	-9.77118E-007	0.00000E+000	-2.93126E-001	0.00000E+000	8	...........	1367.31
	57	5.8	-3.23148E-001	-9.73221E-007	0.00000E+000	-3.23168E-001	0.00000E+000	8	...........	1367.31
	60	6.1	-3.53154E-001	-9.61868E-007	0.00000E+000	-3.53161E-001	0.00000E+000	8	...........	1367.31
	63	6.4	-3.83128E-001	-9.53782E-007	0.00000E+000	-3.83153E-001	0.00000E+000	8	...........	1367.31
	66	6.7	-4.13137E-001	-9.41589E-007	0.00000E+000	-4.13145E-001	0.00000E+000	8	...........	1367.31
	69	7	-4.43133E-001	-9.24463E-007	0.00000E+000	-4.43138E-001	0.00000E+000	8	...........	1367.22
	72	7.3	-4.73131E-001	-8.99961E-007	0.00000E+000	-4.73130E-001	0.00000E+000	8	...........	1367.22
	75	7.6	-5.03122E-001	-8.70739E-007	0.00000E+000	-5.03122E-001	0.00000E+000	8	...........	1367.22
	78	7.9	-5.33147E-001	-8.41523E-007	0.00000E+000	-5.33165E-001	0.00000E+000	8	...........	1367.31
	81	8.2	-5.63153E-001	-8.19394E-007	0.00000E+000	-5.63157E-001	0.00000E+000	8	...........	1367.31
	84	8.5	-5.93138E-001	-8.06179E-007	0.00000E+000	-5.93149E-001	0.00000E+000	8	...........	1367.31
	87	8.8	-5.83185E-001	-2.44832E-007	0.00000E+000	-5.83152E-001	0.00000E+000	8	...........	1367.31
	90	9.1	-5.53194E-001	-1.27879E-007	0.00000E+000	-5.53159E-001	0.00000E+000	8	...........	1367.31
	93	9.4	-5.23191E-001	-4.57064E-008	0.00000E+000	-5.23167E-001	0.00000E+000	8	...........	1367.31
	96	9.7	-4.93171E-001	2.65489E-008	0.00000E+000	-4.93125E-001	0.00000E+000	8	...........	1367.31
	99	10	-4.63196E-001	9.57675E-008	0.00000E+000	-4.63133E-001	0.00000E+000	8	...........	1367.31
	102	10.3	-4.33170E-001	1.63882E-007	0.00000E+000	-4.33140E-001	0.00000E+000	8	...........	1367.31
	105	10.6	-4.03171E-001	2.31962E-007	0.00000E+000	-4.03148E-001	0.00000E+000	8	...........	1367.31
	108	10.9	-3.73188E-001	2.96589E-007	0.00000E+000	-3.73156E-001	0.00000E+000	8	...........	1367.31
	111	11.2	-3.43199E-001	3.59244E-007	0.00000E+000	-3.43163E-001	0.00000E+000	8	...........	1367.31
	114	11.5	-3.13153E-001	4.19710E-007	0.00000E+000	-3.13121E-001	0.00000E+000	8	...........	1367.31
	117	11.8	-2.83174E-001	4.69548E-007	0.00000E+000	-2.83129E-001	0.00000E+000	8	...........	1367.28
	120	12.1	-2.53156E-001	5.16551E-007	0.00000E+000	-2.53136E-001	0.00000E+000	8	...........	1367.22
	123	12.4	-2.23172E-001	5.58411E-007	0.00000E+000	-2.23144E-001	0.00000E+000	8	...........	1367.22
	126	12.7	-1.93204E-001	5.92729E-007	0.00000E+000	-1.93152E-001	0.00000E+000	8	...........	1367.22
	129	13	-1.63193E-001	6.19706E-007	0.00000E+000	-1.63159E-001	0.00000E+000	8	...........	1367.31
	132	13.3	-1.33204E-001	6.36042E-007	0.00000E+000	-1.33167E-001	0.00000E+000	8	...........	1367.31
	135	13.6	-1.03171E-001	6.38957E-007	0.00000E+000	-1.03125E-001	0.00000E+000	8	...........	1367.31
	138	13.9	-7.31593E-002	6.39815E-007	0.00000E+000	-7.31323E-002	0.00000E+000	8	...........	1367.22
	141	14.2	-4.31708E-002	6.48790E-007	0.00000E+000	-4.31400E-002	0.00000E+000	8	...........	1367.22
	144	14.5	-1.31687E-002	6.68389E-007	0.00000E+000	-1.31477E-002	0.00000E+000	8	...........	1367.22
	147	14.8	1.68320E-002	6.70212E-007	0.00000E+000	1.68447E-002	0.00000E+000	8	...........	1367.25
	150	15.1	4.68313E-002	6.70455E-007	0.00000E+000	4.68370E-002	0.00000E+000	8	...........	1367.31
	153	15.4	7.68801E-002	6.81404E-007	0.00000E+000	7.68793E-002	0.00000E+000	8	...........	1367.31
	156	15.7	1.06866E-001	6.91390E-007	0.00000E+000	1.06872E-001	0.00000E+000	8	...........	1367.31
	159	16	1.36865E-001	7.08534E-007	0.00000E+000	1.36864E-001	0.00000E+000	8	...........	1367.31
	162	16.3	1.66871E-001	7.50254E-007	0.00000E+000	1.66856E-001	0.00000E+000	8	...........	1367.31
	165	16.6	1.96866E-001	8.30650E-007	0.00000E+000	1.96849E-001	0.00000E+000	8	...........	1367.31
	168	16.9	2.26844E-001	9.60118E-007	0.00000E+000	2.26841E-001	0.00000E+000	8	...........	1367.31
	171	17.2	2.56848E-001	1.04347E-006	0.00000E+000	2.56833E-001	0.00000E+000	8	...........	1367.31
	174	17.5	2.86900E-001	1.05873E-006	0.00000E+000	2.86876E-001	0.00000E+000	8	...........	1367.31
	177	17.8	3.16882E-001	1.05828E-006	0.00000E+000	3.16868E-001	0.00000E+000	8	...........	1367.31
	180	18.1	3.46896E-001	1.04964E-006	0.00000E+000	3.46860E-001	0.00000E+000	8	...........	1367.31
	183	18.4	3.76870E-001	1.04207E-006	0.00000E+000	3.76853E-001	0.00000E+000	8	...........	1367.31
	186	18.7	4.06866E-001	1.03092E-006	0.00000E+000	4.06845E-001	0.00000E+000	8	...........	1367.31
	189	19	4.36888E-001	9.93442E-007	0.00000E+000	4.36837E-001	0.00000E+000	8	...........	1367.31
	192	19.3	4.66867E-001	9.56508E-007	0.00000E+000	4.66829E-001	0.00000E+000	8	...........	1367.31
	195	19.6	4.96909E-001	9.24455E-007	0.00000E+000	4.96872E-001	0.00000E+000	8	...........	1367.31
	198	19.9	5.26906E-001	9.00076E-007	0.00000E+000	5.26864E-001	0.00000E+000	8	...........	1367.31
	201	20.2	5.56922E-001	8.83033E-007	0.00000E+000	5.56856E-001	0.00000E+000	8	...........	1367.31
	204	20.5	5.86896E-001	8.67975E-007	0.00000E+000	5.86849E-001	0.00000E+000	8	...........	1367.31
	207	20.8	6.16895E-001	8.57175E-007	0.00000E+000	6.16841E-001	0.00000E+000	8	...........	1367.31
	210	21.1	6.46892E-001	8.49203E-007	0.00000E+000	6.46833E-001	0.00000E+000	8	...........	1367.31
	213	21.4	6.76934E-001	8.37554E-007	0.00000E+000	6.76876E-001	0.00000E+000	8	...........	1367.31
	216	21.7	7.06935E-001	8.39818E-007	0.00000E+000	7.06868E-001	0.00000E+000	8	...........	1367.31
	219	22	7.36916E-001	8.94572E-007	0.00000E+000	7.36860E-001	0.00000E+000	8	...........	1367.22
	222	22.3	7.66901E-001	1.09535E-006	0.00000E+000	7.66853E-001	0.00000E+000	8	...........	1367.22
	225	22.6	7.96902E-001	1.67432E-006	0.00000E+000	7.96845E-001	0.00000E+000	8	...........	1367.22
CURVE2	TABLE
	Pt	T	Vf	Im	Vu	Sig	Ach	IERange	Over	Temp
	#	s	V vs. Ref.	A	V	V	V	#	bits	deg C
	226	22.7	7.90098E-001	5.48896E-007	0.00000E+000	7.89997E-001	0.00000E+000	8	...........	1367.22
	229	23	7.60126E-001	-2.79983E-007	0.00000E+000	7.60004E-001	0.00000E+000	8	...........	1367.31
	232	23.3	7.30138E-001	-4.42308E-007	0.00000E+000	7.30012E-001	0.00000E+000	8	...........	1367.31
	235	23.6	7.00127E-001	-5.23699E-007	0.00000E+000	7.00020E-001	0.00000E+000	8	...........	1367.31
	238	23.9	6.70087E-001	-5.91200E-007	0.00000E+000	6.69977E-001	0.00000E+000	8	...........	1367.22
	241	24.2	6.40095E-001	-6.44909E-007	0.00000E+000	6.39985E-001	0.00000E+000	8	...........	1367.22
	244	24.5	6.10090E-001	-6.81602E-007	0.00000E+000	6.09993E-001	0.00000E+000	8	...........	1367.22
	247	24.8	5.80098E-001	-7.13368E-007	0.00000E+000	5.80001E-001	0.00000E+000	8	...........	1367.26
	250	25.1	5.50095E-001	-7.47303E-007	0.00000E+000	5.50008E-001	0.00000E+000	8	...........	1367.31
	253	25.4	5.20097E-001	-7.85426E-007	0.00000E+000	5.20016E-001	0.00000E+000	8	...........	1367.31
	256	25.7	4.90119E-001	-8.27913E-007	0.00000E+000	4.90024E-001	0.00000E+000	8	...........	1367.31
	259	26	4.60059E-001	-8.73991E-007	0.00000E+000	4.59981E-001	0.00000E+000	8	...........	1367.31
	262	26.3	4.30076E-001	-9.19811E-007	0.00000E+000	4.29989E-001	0.00000E+000	8	...........	1367.31
	265	26.6	4.00075E-001	-9.62588E-007	0.00000E+000	3.99997E-001	0.00000E+000	8	...........	1367.31
	268	26.9	3.70057E-001	-9.92082E-007	0.00000E+000	3.70004E-001	0.00000E+000	8	...........	1367.22
	271	27.2	3.40078E-001	-9.83762E-007	0.00000E+000	3.40012E-001	0.00000E+000	8	...........	1367.22
	274	27.5	3.10096E-001	-9.78668E-007	0.00000E+000	3.10020E-001	0.00000E+000	8	...........	1367.22
	277	27.8	2.80037E-001	-9.74641E-007	0.00000E+000	2.79977E-001	0.00000E+000	8	...........	1367.22
	280	28.1	2.50045E-001	-9.51631E-007	0.00000E+000	2.49985E-001	0.00000E+000	8	...........	1367.22
	283	28.4	2.20041E-001	-9.43995E-007	0.00000E+000	2.19993E-001	0.00000E+000	8	...........	1367.22
	286	28.7	1.90054E-001	-8.77358E-007	0.00000E+000	1.90000E-001	0.00000E+000	8	...........	1367.22
	289	29	1.60060E-001	-8.00043E-007	0.00000E+000	1.60008E-001	0.00000E+000	8	...........	1367.31
	292	29.3	1.30083E-001	-7.45008E-007	0.00000E+000	1.30016E-001	0.00000E+000	8	...........	1367.31
	295	29.6	1.00055E-001	-7.16876E-007	0.00000E+000	1.00023E-001	0.00000E+000	8	...........	1367.31
	298	29.9	7.00429E-002	-7.02769E-007	0.00000E+000	6.99811E-002	0.00000E+000	8	...........	1367.22
	301	30.2	4.00227E-002	-6.99515E-007	0.00000E+000	3.99887E-002	0.00000E+000	8	...........	1367.22
	304	30.5	1.00078E-002	-7.06356E-007	0.00000E+000	9.99641E-003	0.00000E+000	8	...........	1367.22
	307	30.8	-1.99825E-002	-7.24186E-007	0.00000E+000	-1.99959E-002	0.00000E+000	8	...........	1367.22
	310	31.1	-4.99495E-002	-7.36804E-007	0.00000E+000	-4.99882E-002	0.00000E+000	8	...........	1367.22
	313	31.4	-7.99717E-002	-7.48563E-007	0.00000E+000	-7.99806E-002	0.00000E+000	8	...........	1367.22
	316	31.7	-1.10001E-001	-7.81990E-007	0.00000E+000	-1.10023E-001	0.00000E+000	8	...........	1367.22
	319	32	-1.39989E-001	-8.27317E-007	0.00000E+000	-1.40015E-001	0.00000E+000	8	...........	1367.22
	322	32.3	-1.69984E-001	-8.77780E-007	0.00000E+000	-1.70007E-001	0.00000E+000	8	...........	1367.22
[...]
	692	69.3	-1.30072E-001	6.32195E-007	0.00000E+000	-1.30018E-001	0.00000E+000	8	...........	1367.31
	695	69.6	-1.00007E-001	6.36171E-007	0.00000E+000	-9.99754E-002	0.00000E+000	8	...........	1367.31
	698	69.9	-7.00032E-002	6.34588E-007	0.00000E+000	-6.99831E-002	0.00000E+000	8	...........	1367.31
	701	70.2	-4.00295E-002	6.42100E-007	0.00000E+000	-3.99908E-002	0.00000E+000	8	...........	1367.31
	704	70.5	-1.00225E-002	6.61780E-007	0.00000E+000	-9.99847E-003	0.00000E+000	8	...........	1367.31
	707	70.8	1.99873E-002	6.65902E-007	0.00000E+000	1.99939E-002	0.00000E+000	8	...........	1367.31
	710	71.1	4.99938E-002	6.68144E-007	0.00000E+000	4.99862E-002	0.00000E+000	8	...........	1367.31
	713	71.4	7.99877E-002	6.77439E-007	0.00000E+000	7.99785E-002	0.00000E+000	8	...........	1367.31
	716	71.7	1.10032E-001	6.90662E-007	0.00000E+000	1.10021E-001	0.00000E+000	8	...........	1367.31
	719	72	1.40004E-001	7.07732E-007	0.00000E+000	1.40013E-001	0.00000E+000	8	...........	1367.31
	722	72.3	1.70001E-001	7.48225E-007	0.00000E+000	1.70005E-001	0.00000E+000	8	...........	1367.31
	725	72.6	2.00004E-001	8.28490E-007	0.00000E+000	1.99998E-001	0.00000E+000	8	...........	1367.31
	728	72.9	2.30020E-001	9.63632E-007	0.00000E+000	2.29990E-001	0.00000E+000	8	...........	1367.31
	731	73.2	2.59992E-001	1.06075E-006	0.00000E+000	2.59982E-001	0.00000E+000	8	...........	1367.31
	734	73.5	2.90046E-001	1.07591E-006	0.00000E+000	2.90025E-001	0.00000E+000	8	...........	1367.31
	737	73.8	3.20042E-001	1.07195E-006	0.00000E+000	3.20017E-001	0.00000E+000	8	...........	1367.31
	740	74.1	3.50037E-001	1.06572E-006	0.00000E+000	3.50009E-001	0.00000E+000	8	...........	1367.31
	743	74.4	3.80007E-001	1.05845E-006	0.00000E+000	3.80002E-001	0.00000E+000	8	...........	1367.31
	746	74.7	4.10036E-001	1.05057E-006	0.00000E+000	4.09994E-001	0.00000E+000	8	...........	1367.31
	749	75	4.40021E-001	1.00995E-006	0.00000E+000	4.39986E-001	0.00000E+000	8	...........	1367.31
	752	75.3	4.70015E-001	9.68252E-007	0.00000E+000	4.69979E-001	0.00000E+000	8	...........	1367.31
	755	75.6	5.00072E-001	9.28749E-007	0.00000E+000	5.00021E-001	0.00000E+000	8	...........	1367.31
	758	75.9	5.30054E-001	8.95596E-007	0.00000E+000	5.30013E-001	0.00000E+000	8	...........	1367.31
	761	76.2	5.60053E-001	8.68732E-007	0.00000E+000	5.60006E-001	0.00000E+000	8	...........	1367.31
	764	76.5	5.90078E-001	8.46341E-007	0.00000E+000	5.89998E-001	0.00000E+000	8	...........	1367.31
	767	76.8	6.20041E-001	8.32959E-007	0.00000E+000	6.19990E-001	0.00000E+000	8	...........	1367.31
	770	77.1	6.50032E-001	8.19446E-007	0.00000E+000	6.49983E-001	0.00000E+000	8	...........	1367.31
	773	77.4	6.80093E-001	8.02154E-007	0.00000E+000	6.80025E-001	0.00000E+000	8	...........	1367.31
	776	77.7	7.10097E-001	7.95996E-007	0.00000E+000	7.10017E-001	0.00000E+000	8	...........	1367.31
	779	78	7.40067E-001	8.49122E-007	0.00000E+000	7.40010E-001	0.00000E+000	8	...........	1367.31
	782	78.3	7.70063E-001	1.05818E-006	0.00000E+000	7.70002E-001	0.00000E+000	8	...........	1367.31
	785	78.6	8.00067E-001	1.68185E-006	0.00000E+000	7.99994E-001	0.00000E+000	8	...........	1367.31
CURVE4	TABLE
	Pt	T	Vf	Im	Vu	Sig	Ach	IERange	Over	Temp
	#	s	V vs. Ref.	A	V	V	V	#	bits	deg C
	786	78.7	7.90110E-001	2.98870E-007	0.00000E+000	7.89997E-001	0.00000E+000	8	...........	1367.31
	787	78.8	7.80095E-001	-4.68680E-008	0.00000E+000	7.79999E-001	0.00000E+000	8	...........	1367.31
	788	78.9	7.70120E-001	-2.28459E-007	0.00000E+000	7.70002E-001	0.00000E+000	8	...........	1367.31
	789	79	7.60119E-001	-3.30981E-007	0.00000E+000	7.60004E-001	0.00000E+000	8	...........	1367.31
	790	79.1	7.50121E-001	-3.95434E-007	0.00000E+000	7.50007E-001	0.00000E+000	8	...........	1367.31
	791	79.2	7.40117E-001	-4.40444E-007	0.00000E+000	7.40010E-001	0.00000E+000	8	...........	1367.31
	792	79.3	7.30129E-001	-4.73566E-007	0.00000E+000	7.30012E-001	0.00000E+000	8	...........	1367.31
	793	79.4	7.20102E-001	-5.00273E-007	0.00000E+000	7.20015E-001	0.00000E+000	8	...........	1367.31
	794	79.5	7.10130E-001	-5.22806E-007	0.00000E+000	7.10017E-001	0.00000E+000	8	...........	1367.31
	795	79.6	7.00109E-001	-5.46083E-007	0.00000E+000	7.00020E-001	0.00000E+000	8	...........	1367.31
	796	79.7	6.90113E-001	-5.67119E-007	0.00000E+000	6.90022E-001	0.00000E+000	8	...........	1367.31
	797	79.8	6.80150E-001	-5.87396E-007	0.00000E+000	6.80025E-001	0.00000E+000	8	...........	1367.31
	798	79.9	6.70090E-001	-6.09672E-007	0.00000E+000	6.69977E-001	0.00000E+000	8	...........	1367.31
	799	80	6.60079E-001	-6.25924E-007	0.00000E+000	6.59980E-001	0.00000E+000	8	...........	1367.31
	800	80.1	6.50070E-001	-6.43668E-007	0.00000E+000	6.49983E-001	0.00000E+000	8	...........	1367.31
	801	80.2	6.40093E-001	-6.60529E-007	0.00000E+000	6.39985E-001	0.00000E+000	8	...........	1367.31
	802	80.3	6.30093E-001	-6.73909E-007	0.00000E+000	6.29988E-001	0.00000E+000	8	...........	1367.31
	803	80.4	6.20080E-001	-6.85131E-007	0.00000E+000	6.19990E-001	0.00000E+000	8	...........	1367.31
	804	80.5	6.10090E-001	-6.95138E-007	0.00000E+000	6.09993E-001	0.00000E+000	8	...........	1367.31
	805	80.6	6.00088E-001	-7.05661E-007	0.00000E+000	5.99995E-001	0.00000E+000	8	...........	1367.31
	806	80.7	5.90105E-001	-7.15437E-007	0.00000E+000	5.89998E-001	0.00000E+000	8	...........	1367.31
	807	80.8	5.80100E-001	-7.25745E-007	0.00000E+000	5.80001E-001	0.00000E+000	8	...........	1367.27
	808	80.9	5.70104E-001	-7.36960E-007	0.00000E+000	5.70003E-001	0.00000E+000	8	...........	1367.22
	809	81	5.60099E-001	-7.47531E-007	0.00000E+000	5.60006E-001	0.00000E+000	8	...........	1367.22
	810	81.1	5.50116E-001	-7.59724E-007	0.00000E+000	5.50008E-001	0.00000E+000	8	...........	1367.22
	811	81.2	5.40111E-001	-7.71541E-007	0.00000E+000	5.40011E-001	0.00000E+000	8	...........	1367.22
	812	81.3	5.30107E-001	-7.83508E-007	0.00000E+000	5.30013E-001	0.00000E+000	8	...........	1367.22
	813	81.4	5.20104E-001	-7.97633E-007	0.00000E+000	5.20016E-001	0.00000E+000	8	...........	1367.22
	814	81.5	5.10091E-001	-8.11753E-007	0.00000E+000	5.10018E-001	0.00000E+000	8	...........	1367.22
	815	81.6	5.00121E-001	-8.24403E-007	0.00000E+000	5.00021E-001	0.00000E+000	8	...........	1367.22
	816	81.7	4.90121E-001	-8.41377E-007	0.00000E+000	4.90024E-001	0.00000E+000	8	...........	1367.22
	817	81.8	4.80069E-001	-8.60589E-007	0.00000E+000	4.79976E-001	0.00000E+000	8	...........	1367.22
	818	81.9	4.70058E-001	-8.72881E-007	0.00000E+000	4.69979E-001	0.00000E+000	8	...........	1367.22
	819	82	4.60062E-001	-8.89295E-007	0.00000E+000	4.59981E-001	0.00000E+000	8	...........	1367.22
	820	82.1	4.50065E-001	-9.05125E-007	0.00000E+000	4.49984E-001	0.00000E+000	8	...........	1367.22
	821	82.2	4.40067E-001	-9.22601E-007	0.00000E+000	4.39986E-001	0.00000E+000	8	...........	1367.22
	822	82.3	4.30072E-001	-9.38715E-007	0.00000E+000	4.29989E-001	0.00000E+000	8	...........	1367.22
	823	82.4	4.20067E-001	-9.54407E-007	0.00000E+000	4.19991E-001	0.00000E+000	8	...........	1367.22
	824	82.5	4.10077E-001	-9.69693E-007	0.00000E+000	4.09994E-001	0.00000E+000	8	...........	1367.22
	825	82.6	4.00066E-001	-9.81174E-007	0.00000E+000	3.99997E-001	0.00000E+000	8	...........	1367.22
	826	82.7	3.90070E-001	-9.93369E-007	0.00000E+000	3.89999E-001	0.00000E+000	8	...........	1367.22
	827	82.8	3.80060E-001	-1.00254E-006	0.00000E+000	3.80002E-001	0.00000E+000	8	...........	1367.18
	828	82.9	3.70071E-001	-1.00608E-006	0.00000E+000	3.70004E-001	0.00000E+000	8	...........	1367.14
	829	83	3.60073E-001	-1.00035E-006	0.00000E+000	3.60007E-001	0.00000E+000	8	...........	1367.14
	830	83.1	3.50076E-001	-9.93434E-007	0.00000E+000	3.50009E-001	0.00000E+000	8	...........	1367.14
	831	83.2	3.40082E-001	-9.89940E-007	0.00000E+000	3.40012E-001	0.00000E+000	8	...........	1367.14
	832	83.3	3.30082E-001	-9.88961E-007	0.00000E+000	3.30014E-001	0.00000E+000	8	...........	1367.14
	833	83.4	3.20091E-001	-9.87273E-007	0.00000E+000	3.20017E-001	0.00000E+000	8	...........	1367.14
	834	83.5	3.10088E-001	-9.86361E-007	0.00000E+000	3.10020E-001	0.00000E+000	8	...........	1367.14
	835	83.6	3.00078E-001	-9.82967E-007	0.00000E+000	3.00022E-001	0.00000E+000	8	...........	1367.14
	836	83.7	2.90085E-001	-9.81097E-007	0.00000E+000	2.90025E-001	0.00000E+000	8	...........	1367.14
	837	83.8	2.80039E-001	-9.80341E-007	0.00000E+000	2.79977E-001	0.00000E+000	8	...........	1367.14
	838	83.9	2.70051E-001	-9.69887E-007	0.00000E+000	2.69980E-001	0.00000E+000	8	...........	1367.14
	839	84	2.60055E-001	-9.63227E-007	0.00000E+000	2.59982E-001	0.00000E+000	8	...........	1367.14
	840	84.1	2.50049E-001	-9.57255E-007	0.00000E+000	2.49985E-001	0.00000E+000	8	...........	1367.14