File: Test_Data_Files/20250509_ZC_IF0011_IIA42_E07_PBSair_PEDOT_CV5000.DTA
EXPLAIN
TAG	CV
TITLE	LABEL	CV5000	Test Identifier
DATE	LABEL	5/9/2025	Date
TIME	LABEL	15:27:17	Time
NOTES	NOTES	1	Notes...

PSTAT	PSTAT	REF600P-43058	Potentiostat
VINIT	POTEN	0.00000E+000	T	Initial E (V)
VLIMIT1	POTEN	-9.00000E-001	F	Scan Limit 1 (V)
VLIMIT2	POTEN	6.00000E-001	F	Scan Limit 2 (V)
VFINAL	POTEN	0.00000E+000	T	Final E (V)
SCANRATE	QUANT	4.99999E+003	Scan Rate (mV/s)
STEPSIZE	QUANT	1.00000E+001	Step Size (mV)
CYCLES	IQUANT	3	Cycles (#)
IMODE	SELECTOR	1	I/E Range Mode
IRANGE	QUANT	1.00000E-002	Max Current (mA)
AREA	QUANT	1.00000E+000	Sample Area (cm^2)
EQDELAY	QUANT	5.00000E+000	Equil. Time (s)
IRCOMP	SELECTOR	0	IRComp
PFCOR	QUANT	5.00000E+001	PF Corr. (ohm)
SAMPLINGMODE	SELECTOR	2	Sampling Mode
EOC	QUANT	0.1338838	Open Circuit (V)
ELECTRODETYPE	SELECTOR	0	Electrode Type
STRIPPING	TOGGLE	F	Used for Stripping
SEQUENCER	TOGGLE	TRUE	Run as Sequence
PSTATMODEL	IQUANT	7	Pstat Model
PSTATSECTION	LABEL	REF600P-43058	Pstat Section
PSTATSERIALNO	LABEL	43058	Pstat Serial Number
CTRLMODE	IQUANT	1	Control Mode
ELECTROMETER	IQUANT	0	RE=0 or CS=1
IESTAB	IQUANT	2	I/E Stability
CASPEED	IQUANT	4	Control Amp Speed
CONVENTION	IQUANT	1	Current Convention
ICHRANGE	IQUANT	2	Ich Range
ICHRANGEMODE	TOGGLE	F	Ich Auto Range
ICHOFFSETENABLE	TOGGLE	F	Ich Offset Enable
ICHOFFSET	QUANT	0	Ich Offset (V)
ICHFILTER	IQUANT	2	Ich Filter
VCHRANGE	IQUANT	2	Vch Range
VCHRANGEMODE	TOGGLE	F	Vch Auto Range
VCHOFFSETENABLE	TOGGLE	F	Vch Offset Enable
VCHOFFSET	QUANT	0	Vch Offset (V)
VCHFILTER	IQUANT	2	Vch Filter
ACHRANGE	IQUANT	2	Ach Range
ACHOFFSETENABLE	TOGGLE	F	Ach Offset Enable
ACHOFFSET	QUANT	0	Ach Offset (V)
ACHFILTER	IQUANT	1	Ach Filter
IERANGELOWERLIMIT	IQUANT	1	I/E Range Lower Limit
IERANGEMODE	TOGGLE	F	I/E AutoRange
IERANGE	IQUANT	7	I/E Range
POSFEEDENABLE	TOGGLE	F	Positive Feedback IR Comp
POSFEEDRESISTANCE	QUANT	0	Positive Feedback Resistance (ohm)
ACHSELECT	IQUANT	4	Ach Select
SENSECABLEID	IQUANT	7	Sense Cable ID
PWRCABLEID	IQUANT	7	Power Cable ID
DCCALDATE	LABEL	5/8/2025	DC Calibration Date
ACCALDATE	LABEL	5/8/2025	AC Calibration Date
THERMOSELECT	IQUANT	1	Thermo Select
FRAMEWORKVERSION	LABEL	7.10.4	Framework Version
INSTRUMENTVERSION	LABEL	5.01	Instrument Version
COMMVERSION	LABEL	5.10	Communications Version
CPUPLDVERSION	LABEL	6.00	CPU PLD Version
CTRLPLDVERSION	LABEL	3.21	CTRL PLD Version
PSTATPLDVERSION	LABEL	0.00	PSTAT PLD Version
CURVE1	TABLE
	Pt	T	Vf	Im	Vu	Sig	Ach	IERange	Over	Temp
	#	s	V vs. Ref.	A	V	V	V	#	bits	deg C
	0	0.002	1.33926E-001	8.76884E-009	0.00000E+000	1.33900E-001	1.41609E-003	7	...........	-327.66
	3	0.008	1.04706E-001	-1.67410E-006	0.00000E+000	1.03900E-001	1.38505E-003	7	...........	-327.66
	6	0.014	7.46971E-002	-2.38333E-006	0.00000E+000	7.39000E-002	1.40402E-003	7	...........	-327.66
	9	0.02	4.47661E-002	-2.82903E-006	0.00000E+000	4.39000E-002	1.38160E-003	7	...........	-327.66
	12	0.026	1.47894E-002	-3.13285E-006	0.00000E+000	1.39000E-002	1.39367E-003	7	...........	-327.66
	15	0.032	-1.52477E-002	-3.35624E-006	0.00000E+000	-1.61000E-002	1.45919E-003	7	...........	-327.66
	18	0.038	-4.52848E-002	-3.53616E-006	0.00000E+000	-4.61000E-002	1.36436E-003	7	...........	-327.66
	21	0.044	-7.52572E-002	-3.68679E-006	0.00000E+000	-7.61000E-002	1.43160E-003	7	...........	-327.66
	24	0.05	-1.05299E-001	-3.82341E-006	0.00000E+000	-1.06100E-001	1.42126E-003	7	...........	-327.66
	27	0.056	-1.35299E-001	-3.95131E-006	0.00000E+000	-1.36100E-001	1.38678E-003	7	...........	-327.66
	30	0.062	-1.65261E-001	-4.07282E-006	0.00000E+000	-1.66100E-001	1.38333E-003	7	...........	-327.66
	33	0.068	-1.95248E-001	-4.19108E-006	0.00000E+000	-1.96100E-001	1.39712E-003	7	...........	-327.66
	36	0.074	-2.25249E-001	-4.30735E-006	0.00000E+000	-2.26100E-001	1.42815E-003	7	...........	-327.66
	39	0.08	-2.55243E-001	-4.41633E-006	0.00000E+000	-2.56100E-001	1.42643E-003	7	...........	-327.66
	42	0.086	-2.85262E-001	-4.51890E-006	0.00000E+000	-2.86100E-001	1.44884E-003	7	...........	-327.66
	45	0.092	-3.15220E-001	-4.61243E-006	0.00000E+000	-3.16100E-001	1.45402E-003	7	...........	-327.66
	48	0.098	-3.45230E-001	-4.69435E-006	0.00000E+000	-3.46100E-001	1.47126E-003	7	...........	-327.66
	51	0.104	-3.75239E-001	-4.76228E-006	0.00000E+000	-3.76100E-001	1.39022E-003	7	...........	-327.66
	54	0.11	-4.05242E-001	-4.81611E-006	0.00000E+000	-4.06100E-001	1.42298E-003	7	...........	-327.66
	57	0.116	-4.35207E-001	-4.85346E-006	0.00000E+000	-4.36100E-001	1.43160E-003	7	...........	-327.66
	60	0.122	-4.65233E-001	-4.87526E-006	0.00000E+000	-4.66100E-001	1.40229E-003	7	...........	-327.66
	63	0.128	-4.95186E-001	-4.87826E-006	0.00000E+000	-4.96100E-001	1.38678E-003	7	...........	-327.66
	66	0.134	-5.25215E-001	-4.86095E-006	0.00000E+000	-5.26100E-001	1.47988E-003	7	...........	-327.66
	69	0.14	-5.55193E-001	-4.80966E-006	0.00000E+000	-5.56100E-001	1.36609E-003	7	...........	-327.66
	72	0.146	-5.85226E-001	-4.70991E-006	0.00000E+000	-5.86100E-001	1.40919E-003	7	...........	-327.66
	75	0.152	-6.15211E-001	-4.53430E-006	0.00000E+000	-6.16100E-001	1.38678E-003	7	...........	-327.66
	78	0.158	-6.45158E-001	-4.25485E-006	0.00000E+000	-6.46100E-001	1.40574E-003	7	...........	-327.66
	81	0.164	-6.75174E-001	-3.86097E-006	0.00000E+000	-6.76100E-001	1.41953E-003	7	...........	-327.66
	84	0.17	-7.05156E-001	-3.37124E-006	0.00000E+000	-7.06100E-001	1.42298E-003	7	...........	-327.66
	87	0.176	-7.35198E-001	-2.82982E-006	0.00000E+000	-7.36100E-001	1.42815E-003	7	...........	-327.66
	90	0.182	-7.65216E-001	-2.29863E-006	0.00000E+000	-7.66100E-001	1.45057E-003	7	...........	-327.66
	93	0.188	-7.95207E-001	-1.83891E-006	0.00000E+000	-7.96100E-001	1.45057E-003	7	...........	-327.66
	96	0.194	-8.25227E-001	-1.47195E-006	0.00000E+000	-8.26100E-001	1.46781E-003	7	...........	-327.66
	99	0.2	-8.55223E-001	-1.21026E-006	0.00000E+000	-8.56100E-001	1.49022E-003	7	...........	-327.66
	102	0.206	-8.85199E-001	-1.02418E-006	0.00000E+000	-8.86100E-001	1.38850E-003	7	...........	-327.66
	105	0.212	-8.76802E-001	-7.75476E-007	0.00000E+000	-8.76100E-001	1.36264E-003	7	...........	-327.66
	108	0.218	-8.46802E-001	-6.16144E-007	0.00000E+000	-8.46100E-001	1.45919E-003	7	...........	-327.66
	111	0.224	-8.16802E-001	-4.98007E-007	0.00000E+000	-8.16100E-001	1.42815E-003	7	...........	-327.66
	114	0.23	-7.86767E-001	-3.85250E-007	0.00000E+000	-7.86100E-001	1.43333E-003	7	...........	-327.66
	117	0.236	-7.56739E-001	-2.60164E-007	0.00000E+000	-7.56100E-001	1.40919E-003	7	...........	-327.66
	120	0.242	-7.26769E-001	-1.02436E-007	0.00000E+000	-7.26100E-001	1.44712E-003	7	...........	-327.66
	123	0.248	-6.96785E-001	1.03747E-007	0.00000E+000	-6.96100E-001	1.41436E-003	7	...........	-327.66
	126	0.254	-6.66789E-001	3.84027E-007	0.00000E+000	-6.66100E-001	1.40402E-003	7	...........	-327.66
	129	0.26	-6.36810E-001	7.70114E-007	0.00000E+000	-6.36100E-001	1.38678E-003	7	...........	-327.66
	132	0.266	-6.06825E-001	1.30082E-006	0.00000E+000	-6.06100E-001	1.46781E-003	7	...........	-327.66
	135	0.272	-5.76813E-001	2.01884E-006	0.00000E+000	-5.76100E-001	1.45919E-003	7	...........	-327.66
	138	0.278	-5.46834E-001	2.95215E-006	0.00000E+000	-5.46100E-001	1.44195E-003	7	...........	-327.66
	141	0.284	-5.16849E-001	4.04834E-006	0.00000E+000	-5.16100E-001	1.40747E-003	7	...........	-327.66
	144	0.29	-4.86861E-001	5.05415E-006	0.00000E+000	-4.86100E-001	1.43160E-003	7	...........	-327.66
	147	0.296	-4.56880E-001	5.54844E-006	0.00000E+000	-4.56100E-001	1.40747E-003	7	...........	-327.66
	150	0.302	-4.26846E-001	5.44613E-006	0.00000E+000	-4.26100E-001	1.45229E-003	7	...........	-327.66
	153	0.308	-3.96843E-001	5.09138E-006	0.00000E+000	-3.96100E-001	1.39195E-003	7	...........	-327.66
	156	0.314	-3.66866E-001	4.76912E-006	0.00000E+000	-3.66100E-001	1.38850E-003	7	...........	-327.66
	159	0.32	-3.36884E-001	4.56215E-006	0.00000E+000	-3.36100E-001	1.44712E-003	7	...........	-327.66
	162	0.326	-3.06893E-001	4.44368E-006	0.00000E+000	-3.06100E-001	1.44712E-003	7	...........	-327.66
	165	0.332	-2.76851E-001	4.37711E-006	0.00000E+000	-2.76100E-001	1.39022E-003	7	...........	-327.66
	168	0.338	-2.46859E-001	4.33888E-006	0.00000E+000	-2.46100E-001	1.39540E-003	7	...........	-327.66
	171	0.344	-2.16832E-001	4.31418E-006	0.00000E+000	-2.16100E-001	1.43333E-003	7	...........	-327.66
	174	0.35	-1.86901E-001	4.29858E-006	0.00000E+000	-1.86100E-001	1.43678E-003	7	...........	-327.66
	177	0.356	-1.56872E-001	4.29066E-006	0.00000E+000	-1.56100E-001	1.44712E-003	7	...........	-327.66
	180	0.362	-1.26920E-001	4.28644E-006	0.00000E+000	-1.26100E-001	1.45229E-003	7	...........	-327.66
	183	0.368	-9.69141E-002	4.28327E-006	0.00000E+000	-9.61000E-002	1.41781E-003	7	...........	-327.66
	186	0.374	-6.68848E-002	4.27975E-006	0.00000E+000	-6.61000E-002	1.36609E-003	7	...........	-327.66
	189	0.38	-3.68442E-002	4.27394E-006	0.00000E+000	-3.61000E-002	1.44712E-003	7	...........	-327.66
	192	0.386	-6.89597E-003	4.26407E-006	0.00000E+000	-6.10001E-003	1.43160E-003	7	...........	-327.66
	195	0.392	2.31282E-002	4.25114E-006	0.00000E+000	2.39000E-002	1.43850E-003	7	...........	-327.66
	198	0.398	5.31152E-002	4.23334E-006	0.00000E+000	5.39000E-002	1.38678E-003	7	...........	-327.66
	201	0.404	8.31480E-002	4.21214E-006	0.00000E+000	8.39000E-002	1.40402E-003	7	...........	-327.66
	204	0.41	1.13127E-001	4.18865E-006	0.00000E+000	1.13900E-001	1.44540E-003	7	...........	-327.66
	207	0.416	1.43164E-001	4.16423E-006	0.00000E+000	1.43900E-001	1.43160E-003	7	...........	-327.66
	210	0.422	1.73139E-001	4.13988E-006	0.00000E+000	1.73900E-001	1.46436E-003	7	...........	-327.66
	213	0.428	2.03152E-001	4.11723E-006	0.00000E+000	2.03900E-001	1.41953E-003	7	...........	-327.66
	216	0.434	2.33103E-001	4.09681E-006	0.00000E+000	2.33900E-001	1.42471E-003	7	...........	-327.66
	219	0.44	2.63058E-001	4.07991E-006	0.00000E+000	2.63900E-001	1.43160E-003	7	...........	-327.66
	222	0.446	2.93075E-001	4.06724E-006	0.00000E+000	2.93900E-001	1.43160E-003	7	...........	-327.66
	225	0.452	3.23144E-001	4.06192E-006	0.00000E+000	3.23900E-001	1.47643E-003	7	...........	-327.66
	228	0.458	3.53088E-001	4.06498E-006	0.00000E+000	3.53900E-001	1.41609E-003	7	...........	-327.66
	231	0.464	3.83099E-001	4.07494E-006	0.00000E+000	3.83900E-001	1.39712E-003	7	...........	-327.66
	234	0.47	4.13038E-001	4.09527E-006	0.00000E+000	4.13900E-001	1.38678E-003	7	...........	-327.66
	237	0.476	4.43088E-001	4.12850E-006	0.00000E+000	4.43900E-001	1.39884E-003	7	...........	-327.66
	240	0.482	4.73040E-001	4.17199E-006	0.00000E+000	4.73900E-001	1.41091E-003	7	...........	-327.66
	243	0.488	5.03083E-001	4.22564E-006	0.00000E+000	5.03900E-001	1.42643E-003	7	...........	-327.66
	246	0.494	5.33076E-001	4.29189E-006	0.00000E+000	5.33900E-001	1.39884E-003	7	...........	-327.66
	249	0.5	5.63092E-001	4.36669E-006	0.00000E+000	5.63900E-001	1.43850E-003	7	...........	-327.66
	252	0.506	5.93045E-001	4.44993E-006	0.00000E+000	5.93900E-001	1.39367E-003	7	...........	-327.66
	253	0.508	6.03120E-001	4.48060E-006	0.00000E+000	6.03900E-001	1.42126E-003	7	...........	-327.66
CURVE2	TABLE
	Pt	T	Vf	Im	Vu	Sig	Ach	IERange	Over	Temp
	#	s	V vs. Ref.	A	V	V	V	#	bits	deg C
	254	0.51	5.91055E-001	2.52487E-006	0.00000E+000	5.90000E-001	1.38160E-003	7	...........	-327.66
	257	0.516	5.60732E-001	5.45445E-007	0.00000E+000	5.60000E-001	1.39712E-003	7	...........	-327.66
	260	0.522	5.30782E-001	-6.63116E-007	0.00000E+000	5.30000E-001	1.38333E-003	7	...........	-327.66
	263	0.528	5.00793E-001	-1.48478E-006	0.00000E+000	5.00000E-001	1.37643E-003	7	...........	-327.66
	266	0.534	4.70771E-001	-2.06293E-006	0.00000E+000	4.70000E-001	1.42815E-003	7	...........	-327.66
	269	0.54	4.40745E-001	-2.48171E-006	0.00000E+000	4.40000E-001	1.44884E-003	7	...........	-327.66
	272	0.546	4.10757E-001	-2.79039E-006	0.00000E+000	4.10000E-001	1.41436E-003	7	...........	-327.66
	275	0.552	3.80787E-001	-3.02637E-006	0.00000E+000	3.80000E-001	1.40574E-003	7	...........	-327.66
	278	0.558	3.50792E-001	-3.21295E-006	0.00000E+000	3.50000E-001	1.41953E-003	7	...........	-327.66
	281	0.564	3.20791E-001	-3.36359E-006	0.00000E+000	3.20000E-001	1.45229E-003	7	...........	-327.66
	284	0.57	2.90765E-001	-3.49119E-006	0.00000E+000	2.90000E-001	1.44884E-003	7	...........	-327.66
	287	0.576	2.60777E-001	-3.60105E-006	0.00000E+000	2.60000E-001	1.40574E-003	7	...........	-327.66
	290	0.582	2.30806E-001	-3.69649E-006	0.00000E+000	2.30000E-001	1.45574E-003	7	...........	-327.66
	293	0.588	2.00796E-001	-3.78175E-006	0.00000E+000	2.00000E-001	1.41436E-003	7	...........	-327.66
	296	0.594	1.70840E-001	-3.85805E-006	0.00000E+000	1.70000E-001	1.40057E-003	7	...........	-327.66
	299	0.6	1.40889E-001	-3.92901E-006	0.00000E+000	1.40000E-001	1.44540E-003	7	...........	-327.66
	302	0.606	1.10820E-001	-3.99350E-006	0.00000E+000	1.10000E-001	1.44022E-003	7	...........	-327.66
	305	0.612	8.07782E-002	-4.05277E-006	0.00000E+000	8.00000E-002	1.42471E-003	7	...........	-327.66
	308	0.618	5.08221E-002	-4.10877E-006	0.00000E+000	5.00000E-002	1.39540E-003	7	...........	-327.66
	311	0.624	2.08264E-002	-4.16171E-006	0.00000E+000	2.00000E-002	1.45919E-003	7	...........	-327.66
	314	0.63	-9.15631E-003	-4.21234E-006	0.00000E+000	-1.00000E-002	1.46781E-003	7	...........	-327.66
	317	0.636	-3.91572E-002	-4.26114E-006	0.00000E+000	-4.00000E-002	1.40574E-003	7	...........	-327.66
	320	0.642	-6.91511E-002	-4.30713E-006	0.00000E+000	-7.00000E-002	1.41609E-003	7	...........	-327.66
	323	0.648	-9.91649E-002	-4.35357E-006	0.00000E+000	-1.00000E-001	1.45402E-003	7	...........	-327.66
	326	0.654	-1.29220E-001	-4.39538E-006	0.00000E+000	-1.30000E-001	1.38333E-003	7	...........	-327.66
	329	0.66	-1.59194E-001	-4.43375E-006	0.00000E+000	-1.60000E-001	1.44022E-003	7	...........	-327.66
	332	0.666	-1.89122E-001	-4.46719E-006	0.00000E+000	-1.90000E-001	1.39022E-003	7	...........	-327.66
	335	0.672	-2.19126E-001	-4.49673E-006	0.00000E+000	-2.20000E-001	1.41091E-003	7	...........	-327.66
	338	0.678	-2.49165E-001	-4.51873E-006	0.00000E+000	-2.50000E-001	1.45747E-003	7	...........	-327.66
	341	0.684	-2.79174E-001	-4.53380E-006	0.00000E+000	-2.80000E-001	1.40574E-003	7	...........	-327.66
	344	0.69	-3.09180E-001	-4.54071E-006	0.00000E+000	-3.10000E-001	1.40919E-003	7	...........	-327.66
	347	0.696	-3.39166E-001	-4.54354E-006	0.00000E+000	-3.40000E-001	1.43505E-003	7	...........	-327.66
	350	0.702	-3.69068E-001	-4.53975E-006	0.00000E+000	-3.70000E-001	1.40747E-003	7	...........	-327.66
	353	0.708	-3.99155E-001	-4.53138E-006	0.00000E+000	-4.00000E-001	1.37298E-003	7	...........	-327.66
	356	0.714	-4.29155E-001	-4.51900E-006	0.00000E+000	-4.30000E-001	1.37471E-003	7	...........	-327.66
	359	0.72	-4.59143E-001	-4.50169E-006	0.00000E+000	-4.60000E-001	1.43850E-003	7	...........	-327.66
	362	0.726	-4.89136E-001	-4.47560E-006	0.00000E+000	-4.90000E-001	1.45747E-003	7	...........	-327.66
	365	0.732	-5.19167E-001	-4.43906E-006	0.00000E+000	-5.20000E-001	1.44367E-003	7	...........	-327.66
	368	0.738	-5.49090E-001	-4.37583E-006	0.00000E+000	-5.50000E-001	1.37988E-003	7	...........	-327.66
	371	0.744	-5.79085E-001	-4.27087E-006	0.00000E+000	-5.80000E-001	1.39540E-003	7	...........	-327.66
	374	0.75	-6.09145E-001	-4.10146E-006	0.00000E+000	-6.10000E-001	1.38160E-003	7	...........	-327.66
	377	0.756	-6.39142E-001	-3.84891E-006	0.00000E+000	-6.40000E-001	1.42643E-003	7	...........	-327.66
	380	0.762	-6.69094E-001	-3.50359E-006	0.00000E+000	-6.70000E-001	1.40402E-003	7	...........	-327.66
	383	0.768	-6.99156E-001	-3.08670E-006	0.00000E+000	-7.00000E-001	1.43160E-003	7	...........	-327.66
	386	0.774	-7.29083E-001	-2.62849E-006	0.00000E+000	-7.30000E-001	1.40574E-003	7	...........	-327.66
	389	0.78	-7.59122E-001	-2.17544E-006	0.00000E+000	-7.60000E-001	1.41953E-003	7	...........	-327.66
	392	0.786	-7.89147E-001	-1.77875E-006	0.00000E+000	-7.90000E-001	1.40229E-003	7	...........	-327.66
	395	0.792	-8.19136E-001	-1.45531E-006	0.00000E+000	-8.20000E-001	1.38333E-003	7	...........	-327.66
	398	0.798	-8.49152E-001	-1.21143E-006	0.00000E+000	-8.50000E-001	1.43505E-003	7	...........	-327.66
	401	0.804	-8.79133E-001	-1.03458E-006	0.00000E+000	-8.80000E-001	1.41436E-003	7	...........	-327.66
	404	0.81	-8.90718E-001	-8.30346E-007	0.00000E+000	-8.90000E-001	1.41264E-003	7	...........	-327.66
	407	0.816	-8.60656E-001	-6.42044E-007	0.00000E+000	-8.60000E-001	1.37988E-003	7	...........	-327.66
	410	0.822	-8.30646E-001	-5.19493E-007	0.00000E+000	-8.30000E-001	1.46264E-003	7	...........	-327.66
	413	0.828	-8.00706E-001	-4.11357E-007	0.00000E+000	-8.00000E-001	1.39367E-003	7	...........	-327.66
	416	0.834	-7.70670E-001	-2.95497E-007	0.00000E+000	-7.70000E-001	1.37988E-003	7	...........	-327.66
	419	0.84	-7.40745E-001	-1.53219E-007	0.00000E+000	-7.40000E-001	1.40229E-003	7	...........	-327.66
	422	0.846	-7.10692E-001	3.14961E-008	0.00000E+000	-7.10000E-001	1.42815E-003	7	...........	-327.66
	425	0.852	-6.80711E-001	2.78030E-007	0.00000E+000	-6.80000E-001	1.39022E-003	7	...........	-327.66
	428	0.858	-6.50703E-001	6.15990E-007	0.00000E+000	-6.50000E-001	1.43505E-003	7	...........	-327.66
	431	0.864	-6.20764E-001	1.08109E-006	0.00000E+000	-6.20000E-001	1.39195E-003	7	...........	-327.66
	434	0.87	-5.90766E-001	1.71940E-006	0.00000E+000	-5.90000E-001	1.40747E-003	7	...........	-327.66
	437	0.876	-5.60774E-001	2.56558E-006	0.00000E+000	-5.60000E-001	1.46091E-003	7	...........	-327.66
[...]
	740	1.482	-5.30771E-001	3.66404E-006	0.00000E+000	-5.30000E-001	1.35919E-003	7	...........	-327.66
	743	1.488	-5.00730E-001	4.75336E-006	0.00000E+000	-5.00000E-001	1.36436E-003	7	...........	-327.66
	746	1.494	-4.70718E-001	5.45887E-006	0.00000E+000	-4.70000E-001	1.48505E-003	7	...........	-327.66
	749	1.5	-4.40785E-001	5.50797E-006	0.00000E+000	-4.40000E-001	1.41781E-003	7	...........	-327.66
	752	1.506	-4.10789E-001	5.15482E-006	0.00000E+000	-4.10000E-001	1.40229E-003	7	...........	-327.66
	755	1.512	-3.80805E-001	4.78071E-006	0.00000E+000	-3.80000E-001	1.40747E-003	7	...........	-327.66
	758	1.518	-3.50800E-001	4.52657E-006	0.00000E+000	-3.50000E-001	1.45919E-003	7	...........	-327.66
	761	1.524	-3.20784E-001	4.38133E-006	0.00000E+000	-3.20000E-001	1.38850E-003	7	...........	-327.66
	764	1.53	-2.90781E-001	4.30353E-006	0.00000E+000	-2.90000E-001	1.45057E-003	7	...........	-327.66
	767	1.536	-2.60780E-001	4.26093E-006	0.00000E+000	-2.60000E-001	1.44195E-003	7	...........	-327.66
	770	1.542	-2.30772E-001	4.24069E-006	0.00000E+000	-2.30000E-001	1.44367E-003	7	...........	-327.66
	773	1.548	-2.00817E-001	4.22795E-006	0.00000E+000	-2.00000E-001	1.41781E-003	7	...........	-327.66
	776	1.554	-1.70819E-001	4.22295E-006	0.00000E+000	-1.70000E-001	1.39884E-003	7	...........	-327.66
	779	1.56	-1.40799E-001	4.22265E-006	0.00000E+000	-1.40000E-001	1.43160E-003	7	...........	-327.66
	782	1.566	-1.10786E-001	4.22388E-006	0.00000E+000	-1.10000E-001	1.42815E-003	7	...........	-327.66
	785	1.572	-8.08244E-002	4.22569E-006	0.00000E+000	-8.00000E-002	1.36264E-003	7	...........	-327.66
	788	1.578	-5.08106E-002	4.22489E-006	0.00000E+000	-5.00000E-002	1.44884E-003	7	...........	-327.66
	791	1.584	-2.08037E-002	4.22069E-006	0.00000E+000	-2.00000E-002	1.39712E-003	7	...........	-327.66
	794	1.59	9.23334E-003	4.21503E-006	0.00000E+000	9.99999E-003	1.39022E-003	7	...........	-327.66
	797	1.596	3.91308E-002	4.20391E-006	0.00000E+000	4.00000E-002	1.41091E-003	7	...........	-327.66
	800	1.602	6.92144E-002	4.18777E-006	0.00000E+000	7.00000E-002	1.43160E-003	7	...........	-327.66
	803	1.608	9.92066E-002	4.16982E-006	0.00000E+000	1.00000E-001	1.45229E-003	7	...........	-327.66
	806	1.614	1.29211E-001	4.15021E-006	0.00000E+000	1.30000E-001	1.43850E-003	7	...........	-327.66
	809	1.62	1.59198E-001	4.12776E-006	0.00000E+000	1.60000E-001	1.41091E-003	7	...........	-327.66
	812	1.626	1.89220E-001	4.10953E-006	0.00000E+000	1.90000E-001	1.47298E-003	7	...........	-327.66
	815	1.632	2.19195E-001	4.09065E-006	0.00000E+000	2.20000E-001	1.45402E-003	7	...........	-327.66
	818	1.638	2.49215E-001	4.07646E-006	0.00000E+000	2.50000E-001	1.36091E-003	7	...........	-327.66
	821	1.644	2.79186E-001	4.06491E-006	0.00000E+000	2.80000E-001	1.36091E-003	7	...........	-327.66
	824	1.65	3.09189E-001	4.06115E-006	0.00000E+000	3.10000E-001	1.44367E-003	7	...........	-327.66
	827	1.656	3.39177E-001	4.06224E-006	0.00000E+000	3.40000E-001	1.39022E-003	7	...........	-327.66
	830	1.662	3.69197E-001	4.07339E-006	0.00000E+000	3.70000E-001	1.37298E-003	7	...........	-327.66
	833	1.668	3.99201E-001	4.09293E-006	0.00000E+000	4.00000E-001	1.45229E-003	7	...........	-327.66
	836	1.674	4.29178E-001	4.12169E-006	0.00000E+000	4.30000E-001	1.39022E-003	7	...........	-327.66
	839	1.68	4.59185E-001	4.16121E-006	0.00000E+000	4.60000E-001	1.46264E-003	7	...........	-327.66
	842	1.686	4.89159E-001	4.21170E-006	0.00000E+000	4.90000E-001	1.37298E-003	7	...........	-327.66
	845	1.692	5.19149E-001	4.27544E-006	0.00000E+000	5.20000E-001	1.46091E-003	7	...........	-327.66
	848	1.698	5.49159E-001	4.34893E-006	0.00000E+000	5.50000E-001	1.41091E-003	7	...........	-327.66
	851	1.704	5.79170E-001	4.43115E-006	0.00000E+000	5.80000E-001	1.44195E-003	7	...........	-327.66
	853	1.708	5.99170E-001	4.49229E-006	0.00000E+000	6.00000E-001	1.42471E-003	7	...........	-327.66
CURVE4	TABLE
	Pt	T	Vf	Im	Vu	Sig	Ach	IERange	Over	Temp
	#	s	V vs. Ref.	A	V	V	V	#	bits	deg C
	854	1.71	5.90738E-001	2.83534E-006	0.00000E+000	5.90000E-001	1.38505E-003	7	...........	-327.66
	855	1.712	5.80764E-001	1.88075E-006	0.00000E+000	5.80000E-001	1.44540E-003	7	...........	-327.66
	856	1.714	5.70738E-001	1.17886E-006	0.00000E+000	5.70000E-001	1.44884E-003	7	...........	-327.66
	857	1.716	5.60745E-001	6.06902E-007	0.00000E+000	5.60000E-001	1.44195E-003	7	...........	-327.66
	858	1.718	5.50764E-001	1.23509E-007	0.00000E+000	5.50000E-001	1.42471E-003	7	...........	-327.66
	859	1.72	5.40787E-001	-2.94479E-007	0.00000E+000	5.40000E-001	1.39540E-003	7	...........	-327.66
	860	1.722	5.30796E-001	-6.57322E-007	0.00000E+000	5.30000E-001	1.42126E-003	7	...........	-327.66
	861	1.724	5.20769E-001	-9.75538E-007	0.00000E+000	5.20000E-001	1.42298E-003	7	...........	-327.66
	862	1.726	5.10763E-001	-1.25749E-006	0.00000E+000	5.10000E-001	1.44540E-003	7	...........	-327.66
	863	1.728	5.00798E-001	-1.50683E-006	0.00000E+000	5.00000E-001	1.41091E-003	7	...........	-327.66
	864	1.73	4.90754E-001	-1.72659E-006	0.00000E+000	4.90000E-001	1.36609E-003	7	...........	-327.66
	865	1.732	4.80746E-001	-1.92374E-006	0.00000E+000	4.80000E-001	1.42815E-003	7	...........	-327.66
	866	1.734	4.70770E-001	-2.09783E-006	0.00000E+000	4.70000E-001	1.44884E-003	7	...........	-327.66
	867	1.736	4.60770E-001	-2.25540E-006	0.00000E+000	4.60000E-001	1.42643E-003	7	...........	-327.66
	868	1.738	4.50816E-001	-2.39544E-006	0.00000E+000	4.50000E-001	1.38678E-003	7	...........	-327.66
	869	1.74	4.40744E-001	-2.52266E-006	0.00000E+000	4.40000E-001	1.41264E-003	7	...........	-327.66
	870	1.742	4.30757E-001	-2.63654E-006	0.00000E+000	4.30000E-001	1.40574E-003	7	...........	-327.66
	871	1.744	4.20817E-001	-2.73976E-006	0.00000E+000	4.20000E-001	1.42126E-003	7	...........	-327.66
	872	1.746	4.10776E-001	-2.83358E-006	0.00000E+000	4.10000E-001	1.42471E-003	7	...........	-327.66
	873	1.748	4.00788E-001	-2.92004E-006	0.00000E+000	4.00000E-001	1.44884E-003	7	...........	-327.66
	874	1.75	3.90780E-001	-2.99892E-006	0.00000E+000	3.90000E-001	1.45229E-003	7	...........	-327.66
	875	1.752	3.80785E-001	-3.07056E-006	0.00000E+000	3.80000E-001	1.42815E-003	7	...........	-327.66
	876	1.754	3.70805E-001	-3.13621E-006	0.00000E+000	3.70000E-001	1.40229E-003	7	...........	-327.66
	877	1.756	3.60771E-001	-3.19763E-006	0.00000E+000	3.60000E-001	1.36264E-003	7	...........	-327.66
	878	1.758	3.50820E-001	-3.25466E-006	0.00000E+000	3.50000E-001	1.40229E-003	7	...........	-327.66
	879	1.76	3.40810E-001	-3.30760E-006	0.00000E+000	3.40000E-001	1.35574E-003	7	...........	-327.66
	880	1.762	3.30803E-001	-3.35605E-006	0.00000E+000	3.30000E-001	1.46436E-003	7	...........	-327.66
	881	1.764	3.20776E-001	-3.40390E-006	0.00000E+000	3.20000E-001	1.39540E-003	7	...........	-327.66
	882	1.766	3.10780E-001	-3.44762E-006	0.00000E+000	3.10000E-001	1.43160E-003	7	...........	-327.66
	883	1.768	3.00794E-001	-3.48948E-006	0.00000E+000	3.00000E-001	1.42643E-003	7	...........	-327.66
	884	1.77	2.90790E-001	-3.52871E-006	0.00000E+000	2.90000E-001	1.42643E-003	7	...........	-327.66
	885	1.772	2.80791E-001	-3.56449E-006	0.00000E+000	2.80000E-001	1.40574E-003	7	...........	-327.66
	886	1.774	2.70845E-001	-3.60029E-006	0.00000E+000	2.70000E-001	1.35574E-003	7	...........	-327.66
	887	1.776	2.60782E-001	-3.63414E-006	0.00000E+000	2.60000E-001	1.41609E-003	7	...........	-327.66
	888	1.778	2.50803E-001	-3.66430E-006	0.00000E+000	2.50000E-001	1.36264E-003	7	...........	-327.66
	889	1.78	2.40794E-001	-3.69596E-006	0.00000E+000	2.40000E-001	1.38850E-003	7	...........	-327.66
	890	1.782	2.30789E-001	-3.72638E-006	0.00000E+000	2.30000E-001	1.42471E-003	7	...........	-327.66
	891	1.784	2.20810E-001	-3.75516E-006	0.00000E+000	2.20000E-001	1.43333E-003	7	...........	-327.66
	892	1.786	2.10776E-001	-3.78235E-006	0.00000E+000	2.10000E-001	1.45229E-003	7	...........	-327.66
	893	1.788	2.00814E-001	-3.80901E-006	0.00000E+000	2.00000E-001	1.41609E-003	7	...........	-327.66
	894	1.79	1.90865E-001	-3.83388E-006	0.00000E+000	1.90000E-001	1.44884E-003	7	...........	-327.66
	895	1.792	1.80822E-001	-3.85912E-006	0.00000E+000	1.80000E-001	1.39540E-003	7	...........	-327.66
	896	1.794	1.70847E-001	-3.88273E-006	0.00000E+000	1.70000E-001	1.40402E-003	7	...........	-327.66
	897	1.796	1.60795E-001	-3.90695E-006	0.00000E+000	1.60000E-001	1.35919E-003	7	...........	-327.66
	898	1.798	1.50844E-001	-3.92732E-006	0.00000E+000	1.50000E-001	1.45574E-003	7	...........	-327.66
	899	1.8	1.40896E-001	-3.95031E-006	0.00000E+000	1.40000E-001	1.41953E-003	7	...........	-327.66
	900	1.802	1.30841E-001	-3.97045E-006	0.00000E+000	1.30000E-001	1.38160E-003	7	...........	-327.66