File: Test_Data_Files/20250424_E_CHI105_2mmAu_E000_PBSarg_CV500.DTA
EXPLAIN
TAG	CV
TITLE	LABEL	Cyclic Voltammetry	Test &Identifier
DATE	LABEL	4/24/2025	Date
TIME	LABEL	16:59:26	Time
NOTES	NOTES	3	&Notes...

PSTAT	PSTAT	IFC1010-32247	Potentiostat
VINIT	POTEN	0.00000E+000	T	Initial &E (V)
VLIMIT1	POTEN	-6.00000E-001	F	Scan Limit &1 (V)
VLIMIT2	POTEN	8.00000E-001	F	Scan Limit &2 (V)
VFINAL	POTEN	0.00000E+000	T	Final &E (V)
SCANRATE	QUANT	4.99999E+002	&Scan Rate (mV/s)
STEPSIZE	QUANT	1.00000E+001	St&ep Size (mV)
CYCLES	IQUANT	3	C&ycles (#)
IMODE	SELECTOR	1	I/E Range &Mode
IRANGE	QUANT	1.00000E-002	&Max Current (mA)
AREA	QUANT	1.00000E+000	Electrode &Area (cm^2)
ELECTRODETYPE	SELECTOR	0	Electrode Type
STRIPPING	TOGGLE	F	Used for Stripping
CONDIT	TWOPARAM	F	1.50000E+001	0.00000E+000	Conditionin&g	Time(s)	E(V)
DELAY	TWOPARAM	T	1.50000E+001	0.00000E+000	Init. De&lay	Time(s)	Stab.(mV/s)
EQDELAY	QUANT	0.00000E+000	Equil. &Time (s)
IRCOMP	SELECTOR	0	IRCom&p
PFCOR	QUANT	5.00000E+001	PF Corr. (ohm)
SAMPLINGMODE	SELECTOR	2	Sampling &Mode
OCVCURVE	TABLE	58
	Pt	T	Vf	Vm	Ach	Over	Temp
	#	s	V vs. Ref.	V	V	bits	deg C
	0	0.258333	2.64980E-001	2.64980E-001	0.00000E+000	...........	1367.91
	1	0.516667	2.64978E-001	2.64914E-001	0.00000E+000	...........	1367.91
	2	0.775	2.64971E-001	2.64855E-001	0.00000E+000	...........	1367.91
	3	1.03333	2.64950E-001	2.64803E-001	0.00000E+000	...........	1367.91
	4	1.29167	2.64912E-001	2.64737E-001	0.00000E+000	...........	1367.91
	5	1.55	2.64861E-001	2.64664E-001	0.00000E+000	...........	1368.00
	6	1.80833	2.64803E-001	2.64602E-001	0.00000E+000	...........	1368.00
	7	2.06667	2.64739E-001	2.64560E-001	0.00000E+000	...........	1368.00
	8	2.325	2.64676E-001	2.64490E-001	0.00000E+000	...........	1367.97
	9	2.58333	2.64615E-001	2.64440E-001	0.00000E+000	...........	1367.83
	10	2.84167	2.64556E-001	2.64377E-001	0.00000E+000	...........	1367.83
	11	3.1	2.64499E-001	2.64310E-001	0.00000E+000	...........	1367.83
	12	3.35833	2.64440E-001	2.64253E-001	0.00000E+000	...........	1367.83
	13	3.61667	2.64380E-001	2.64197E-001	0.00000E+000	...........	1367.83
	14	3.875	2.64319E-001	2.64147E-001	0.00000E+000	...........	1367.83
	15	4.13333	2.64260E-001	2.64071E-001	0.00000E+000	...........	1367.83
	16	4.39167	2.64202E-001	2.64021E-001	0.00000E+000	...........	1367.91
	17	4.65	2.64143E-001	2.63945E-001	0.00000E+000	...........	1367.91
	18	4.90833	2.64082E-001	2.63904E-001	0.00000E+000	...........	1367.91
	19	5.16667	2.64021E-001	2.63832E-001	0.00000E+000	...........	1367.91
	20	5.425	2.63960E-001	2.63771E-001	0.00000E+000	...........	1368.00
	21	5.68333	2.63900E-001	2.63723E-001	0.00000E+000	...........	1368.00
	22	5.94167	2.63839E-001	2.63647E-001	0.00000E+000	...........	1368.00
	23	6.2	2.63779E-001	2.63591E-001	0.00000E+000	...........	1368.00
	24	6.45833	2.63719E-001	2.63531E-001	0.00000E+000	...........	1367.91
	25	6.71667	2.63657E-001	2.63477E-001	0.00000E+000	...........	1367.91
	26	6.975	2.63597E-001	2.63405E-001	0.00000E+000	...........	1367.91
	27	7.23333	2.63537E-001	2.63366E-001	0.00000E+000	...........	1367.91
	28	7.49167	2.63478E-001	2.63313E-001	0.00000E+000	...........	1367.91
	29	7.75	2.63421E-001	2.63244E-001	0.00000E+000	...........	1367.91
	30	8.00833	2.63365E-001	2.63167E-001	0.00000E+000	...........	1367.91
	31	8.26667	2.63307E-001	2.63111E-001	0.00000E+000	...........	1367.91
	32	8.525	2.63245E-001	2.63066E-001	0.00000E+000	...........	1368.00
	33	8.78333	2.63183E-001	2.63014E-001	0.00000E+000	...........	1368.00
	34	9.04167	2.63123E-001	2.62949E-001	0.00000E+000	...........	1368.00
	35	9.3	2.63067E-001	2.62896E-001	0.00000E+000	...........	1368.00
	36	9.5583	2.63012E-001	2.62833E-001	0.00000E+000	...........	1368.00
	37	9.8167	2.62955E-001	2.62773E-001	0.00000E+000	...........	1368.00
	38	10.075	2.62898E-001	2.62725E-001	0.00000E+000	...........	1368.00
	39	10.3333	2.62839E-001	2.62665E-001	0.00000E+000	...........	1367.94
	40	10.5917	2.62782E-001	2.62585E-001	0.00000E+000	...........	1367.83
	41	10.85	2.62723E-001	2.62535E-001	0.00000E+000	...........	1367.83
	42	11.1083	2.62662E-001	2.62466E-001	0.00000E+000	...........	1367.83
	43	11.3667	2.62599E-001	2.62415E-001	0.00000E+000	...........	1367.83
	44	11.625	2.62537E-001	2.62368E-001	0.00000E+000	...........	1367.83
	45	11.8833	2.62478E-001	2.62297E-001	0.00000E+000	...........	1367.83
	46	12.1417	2.62421E-001	2.62245E-001	0.00000E+000	...........	1367.83
	47	12.4	2.62364E-001	2.62183E-001	0.00000E+000	...........	1367.91
	48	12.6583	2.62306E-001	2.62125E-001	0.00000E+000	...........	1367.91
	49	12.9167	2.62248E-001	2.62080E-001	0.00000E+000	...........	1367.91
	50	13.175	2.62190E-001	2.62006E-001	0.00000E+000	...........	1367.91
	51	13.4333	2.62132E-001	2.61936E-001	0.00000E+000	...........	1367.91
	52	13.6917	2.62073E-001	2.61895E-001	0.00000E+000	...........	1367.91
	53	13.95	2.62012E-001	2.61838E-001	0.00000E+000	...........	1367.91
	54	14.2083	2.61953E-001	2.61773E-001	0.00000E+000	...........	1367.91
	55	14.4667	2.61895E-001	2.61706E-001	0.00000E+000	...........	1368.00
	56	14.725	2.61837E-001	2.61663E-001	0.00000E+000	...........	1368.00
	57	14.9833	2.61778E-001	2.61600E-001	0.00000E+000	...........	1368.00
EOC	QUANT	0.2617777	Open Circuit (V)
PSTATMODEL	IQUANT	64	Pstat Model
PSTATSECTION	LABEL	IFC1010-32247	Pstat Section
PSTATSERIALNO	LABEL	32247	Pstat Serial Number
CTRLMODE	IQUANT	1	Control Mode
ELECTROMETER	IQUANT	0	RE=0 or CS=1
IESTAB	IQUANT	2	I/E Stability
CASPEED	IQUANT	4	Control Amp Speed
CONVENTION	IQUANT	1	Current Convention
ICHRANGE	IQUANT	2	Ich Range
ICHRANGEMODE	TOGGLE	F	Ich Auto Range
ICHOFFSETENABLE	TOGGLE	F	Ich Offset Enable
ICHOFFSET	QUANT	0	Ich Offset (V)
ICHFILTER	IQUANT	3	Ich Filter
VCHRANGE	IQUANT	2	Vch Range
VCHRANGEMODE	TOGGLE	F	Vch Auto Range
VCHOFFSETENABLE	TOGGLE	F	Vch Offset Enable
VCHOFFSET	QUANT	0	Vch Offset (V)
VCHFILTER	IQUANT	3	Vch Filter
IERANGELOWERLIMIT	IQUANT	4	I/E Range Lower Limit
IERANGEMODE	TOGGLE	F	I/E AutoRange
IERANGE	IQUANT	8	I/E Range
ACHSELECT	IQUANT	0	Ach Select
ACHRANGE	IQUANT	2	Ach Range
ACHOFFSETENABLE	TOGGLE	F	Ach Offset Enable
ACHOFFSET	QUANT	0	Ach Offset (V)
ACHFILTER	IQUANT	1	Ach Filter
SENSECABLEID	IQUANT	14	Sense Cable ID
PWRCABLEID	IQUANT	14	Power Cable ID
DCCALDATE	LABEL	11/18/2024	DC Calibration Date
ACCALDATE	LABEL	4/18/2022	AC Calibration Date
FRAMEWORKVERSION	LABEL	7.10.3	Framework Version
INSTRUMENTVERSION	LABEL	4.91	Instrument Version
COMMVERSION	LABEL	3.10	Communications Version
CPUPLDVERSION	LABEL	2.22	CPU PLD Version
CTRLPLDVERSION	LABEL	0.00	CTRL PLD Version
PSTATPLDVERSION	LABEL	0.00	PSTAT PLD Version
CURVE1	TABLE
	Pt	T	Vf	Im	Vu	Sig	Ach	IERange	Over	Temp
	#	s	V vs. Ref.	A	V	V	V	#	bits	deg C
	0	0.02	2.61814E-001	2.22635E-008	0.00000E+000	2.61782E-001	0.00000E+000	8	...........	1367.91
	3	0.08	2.31951E-001	-3.16368E-006	0.00000E+000	2.31790E-001	0.00000E+000	8	...........	1367.91
	6	0.14	2.01933E-001	-3.20359E-006	0.00000E+000	2.01797E-001	0.00000E+000	8	...........	1367.91
	9	0.2	1.71884E-001	-3.10045E-006	0.00000E+000	1.71755E-001	0.00000E+000	8	...........	1367.91
	12	0.26	1.41909E-001	-2.91302E-006	0.00000E+000	1.41763E-001	0.00000E+000	8	...........	1367.91
	15	0.32	1.11908E-001	-2.83809E-006	0.00000E+000	1.11770E-001	0.00000E+000	8	...........	1367.91
	18	0.38	8.19150E-002	-2.84682E-006	0.00000E+000	8.17780E-002	0.00000E+000	8	...........	1367.91
	21	0.44	5.19325E-002	-2.90182E-006	0.00000E+000	5.17857E-002	0.00000E+000	8	...........	1367.91
	24	0.5	2.19308E-002	-2.98991E-006	0.00000E+000	2.17934E-002	0.00000E+000	8	...........	1367.91
	27	0.56	-8.08203E-003	-3.11857E-006	0.00000E+000	-8.19893E-003	0.00000E+000	8	...........	1367.91
	30	0.62	-3.81311E-002	-3.25193E-006	0.00000E+000	-3.82412E-002	0.00000E+000	8	...........	1367.91
	33	0.68	-6.81294E-002	-3.29689E-006	0.00000E+000	-6.82336E-002	0.00000E+000	8	...........	1367.91
	36	0.74	-9.81277E-002	-3.37864E-006	0.00000E+000	-9.82259E-002	0.00000E+000	8	...........	1367.91
	39	0.8	-1.28111E-001	-3.50419E-006	0.00000E+000	-1.28218E-001	0.00000E+000	8	...........	1367.91
	42	0.86	-1.58104E-001	-3.65268E-006	0.00000E+000	-1.58211E-001	0.00000E+000	8	...........	1367.91
	45	0.92	-1.88085E-001	-3.79941E-006	0.00000E+000	-1.88203E-001	0.00000E+000	8	...........	1367.91
	48	0.98	-2.18157E-001	-3.92975E-006	0.00000E+000	-2.18245E-001	0.00000E+000	8	...........	1367.91
	51	1.04	-2.48136E-001	-3.96089E-006	0.00000E+000	-2.48237E-001	0.00000E+000	8	...........	1367.91
	54	1.1	-2.78103E-001	-3.92627E-006	0.00000E+000	-2.78230E-001	0.00000E+000	8	...........	1367.91
	57	1.16	-3.08134E-001	-3.83786E-006	0.00000E+000	-3.08222E-001	0.00000E+000	8	...........	1367.91
	60	1.22	-3.38093E-001	-3.70373E-006	0.00000E+000	-3.38214E-001	0.00000E+000	8	...........	1367.91
	63	1.28	-3.68090E-001	-3.54117E-006	0.00000E+000	-3.68207E-001	0.00000E+000	8	...........	1367.91
	66	1.34	-3.98088E-001	-3.36290E-006	0.00000E+000	-3.98199E-001	0.00000E+000	8	...........	1367.91
	69	1.4	-4.28130E-001	-3.17953E-006	0.00000E+000	-4.28241E-001	0.00000E+000	8	...........	1367.91
	72	1.46	-4.58142E-001	-2.99919E-006	0.00000E+000	-4.58234E-001	0.00000E+000	8	...........	1366.97
	75	1.52	-4.88157E-001	-2.82842E-006	0.00000E+000	-4.88226E-001	0.00000E+000	8	...........	1366.97
	78	1.58	-5.18134E-001	-2.66548E-006	0.00000E+000	-5.18218E-001	0.00000E+000	8	...........	1366.97
	81	1.64	-5.48116E-001	-2.52364E-006	0.00000E+000	-5.48211E-001	0.00000E+000	8	...........	1366.97
	84	1.7	-5.78123E-001	-2.40943E-006	0.00000E+000	-5.78203E-001	0.00000E+000	8	...........	1366.97
	87	1.76	-5.88335E-001	-1.04595E-007	0.00000E+000	-5.88200E-001	0.00000E+000	8	...........	1366.97
	90	1.82	-5.58323E-001	4.12745E-007	0.00000E+000	-5.58208E-001	0.00000E+000	8	...........	1366.97
	93	1.88	-5.28331E-001	7.19484E-007	0.00000E+000	-5.28216E-001	0.00000E+000	8	...........	1366.97
	96	1.94	-4.98350E-001	9.81672E-007	0.00000E+000	-4.98223E-001	0.00000E+000	8	...........	1366.97
	99	2	-4.68361E-001	1.23039E-006	0.00000E+000	-4.68231E-001	0.00000E+000	8	...........	1366.97
	102	2.06	-4.38376E-001	1.46980E-006	0.00000E+000	-4.38239E-001	0.00000E+000	8	...........	1366.97
	105	2.12	-4.08357E-001	1.70793E-006	0.00000E+000	-4.08247E-001	0.00000E+000	8	...........	1366.97
	108	2.18	-3.78327E-001	1.94485E-006	0.00000E+000	-3.78204E-001	0.00000E+000	8	...........	1366.97
	111	2.24	-3.48351E-001	2.17115E-006	0.00000E+000	-3.48212E-001	0.00000E+000	8	...........	1366.97
	114	2.3	-3.18337E-001	2.37756E-006	0.00000E+000	-3.18220E-001	0.00000E+000	8	...........	1366.97
	117	2.36	-2.88350E-001	2.56075E-006	0.00000E+000	-2.88227E-001	0.00000E+000	8	...........	1366.97
	120	2.42	-2.58365E-001	2.71569E-006	0.00000E+000	-2.58235E-001	0.00000E+000	8	...........	1366.93
	123	2.48	-2.28349E-001	2.84442E-006	0.00000E+000	-2.28243E-001	0.00000E+000	8	...........	1366.88
	126	2.54	-1.98319E-001	2.94697E-006	0.00000E+000	-1.98200E-001	0.00000E+000	8	...........	1366.88
	129	2.6	-1.68325E-001	3.01389E-006	0.00000E+000	-1.68208E-001	0.00000E+000	8	...........	1366.88
	132	2.66	-1.38328E-001	3.03610E-006	0.00000E+000	-1.38216E-001	0.00000E+000	8	...........	1366.88
	135	2.72	-1.08347E-001	3.01358E-006	0.00000E+000	-1.08223E-001	0.00000E+000	8	...........	1366.88
	138	2.78	-7.83584E-002	2.98371E-006	0.00000E+000	-7.82310E-002	0.00000E+000	8	...........	1366.88
	141	2.84	-4.83567E-002	2.98910E-006	0.00000E+000	-4.82387E-002	0.00000E+000	8	...........	1366.88
	144	2.9	-1.83720E-002	3.06281E-006	0.00000E+000	-1.82464E-002	0.00000E+000	8	...........	1366.88
	147	2.96	1.16831E-002	3.08238E-006	0.00000E+000	1.17960E-002	0.00000E+000	8	...........	1366.88
	150	3.02	4.17018E-002	3.06625E-006	0.00000E+000	4.17883E-002	0.00000E+000	8	...........	1366.88
	153	3.08	7.16968E-002	3.09059E-006	0.00000E+000	7.17806E-002	0.00000E+000	8	...........	1366.88
	156	3.14	1.01693E-001	3.14897E-006	0.00000E+000	1.01773E-001	0.00000E+000	8	...........	1366.88
	159	3.2	1.31689E-001	3.23726E-006	0.00000E+000	1.31765E-001	0.00000E+000	8	...........	1366.88
	162	3.26	1.61664E-001	3.38534E-006	0.00000E+000	1.61758E-001	0.00000E+000	8	...........	1366.88
	165	3.32	1.91717E-001	3.67266E-006	0.00000E+000	1.91800E-001	0.00000E+000	8	...........	1366.88
	168	3.38	2.21703E-001	4.19341E-006	0.00000E+000	2.21792E-001	0.00000E+000	8	...........	1366.88
	171	3.44	2.51705E-001	4.61963E-006	0.00000E+000	2.51785E-001	0.00000E+000	8	...........	1366.79
	174	3.5	2.81715E-001	4.76351E-006	0.00000E+000	2.81777E-001	0.00000E+000	8	...........	1366.79
	177	3.56	3.11710E-001	4.77881E-006	0.00000E+000	3.11769E-001	0.00000E+000	8	...........	1366.79
	180	3.62	3.41672E-001	4.76904E-006	0.00000E+000	3.41761E-001	0.00000E+000	8	...........	1366.79
	183	3.68	3.71699E-001	4.72284E-006	0.00000E+000	3.71754E-001	0.00000E+000	8	...........	1366.79
	186	3.74	4.01721E-001	4.72975E-006	0.00000E+000	4.01796E-001	0.00000E+000	8	...........	1366.79
	189	3.8	4.31723E-001	4.60670E-006	0.00000E+000	4.31788E-001	0.00000E+000	8	...........	1366.79
	192	3.86	4.61732E-001	4.43006E-006	0.00000E+000	4.61781E-001	0.00000E+000	8	...........	1366.79
	195	3.92	4.91724E-001	4.24980E-006	0.00000E+000	4.91773E-001	0.00000E+000	8	...........	1366.79
	198	3.98	5.21712E-001	4.07741E-006	0.00000E+000	5.21765E-001	0.00000E+000	8	...........	1366.79
	201	4.04	5.51721E-001	3.93671E-006	0.00000E+000	5.51758E-001	0.00000E+000	8	...........	1366.79
	204	4.1	5.81739E-001	3.83106E-006	0.00000E+000	5.81800E-001	0.00000E+000	8	...........	1366.79
	207	4.16	6.11731E-001	3.74427E-006	0.00000E+000	6.11792E-001	0.00000E+000	8	...........	1366.79
	210	4.22	6.41731E-001	3.65884E-006	0.00000E+000	6.41785E-001	0.00000E+000	8	...........	1366.79
	213	4.28	6.71749E-001	3.52988E-006	0.00000E+000	6.71777E-001	0.00000E+000	8	...........	1366.79
	216	4.34	7.01733E-001	3.39639E-006	0.00000E+000	7.01769E-001	0.00000E+000	8	...........	1366.79
	219	4.4	7.31740E-001	3.36046E-006	0.00000E+000	7.31762E-001	0.00000E+000	8	...........	1366.79
	222	4.46	7.61724E-001	3.54874E-006	0.00000E+000	7.61754E-001	0.00000E+000	8	...........	1366.88
	225	4.52	7.91771E-001	4.28546E-006	0.00000E+000	7.91796E-001	0.00000E+000	8	...........	1366.88
	226	4.54	8.01774E-001	4.73979E-006	0.00000E+000	8.01794E-001	0.00000E+000	8	...........	1366.88
CURVE2	TABLE
	Pt	T	Vf	Im	Vu	Sig	Ach	IERange	Over	Temp
	#	s	V vs. Ref.	A	V	V	V	#	bits	deg C
	227	4.56	7.90232E-001	2.00249E-007	0.00000E+000	7.89997E-001	0.00000E+000	8	...........	1366.88
	230	4.62	7.60219E-001	-1.17439E-006	0.00000E+000	7.60004E-001	0.00000E+000	8	...........	1366.88
	233	4.68	7.30235E-001	-1.72577E-006	0.00000E+000	7.30012E-001	0.00000E+000	8	...........	1366.88
	236	4.74	7.00221E-001	-2.09236E-006	0.00000E+000	7.00020E-001	0.00000E+000	8	...........	1366.88
	239	4.8	6.70189E-001	-2.42829E-006	0.00000E+000	6.69977E-001	0.00000E+000	8	...........	1366.88
	242	4.86	6.40190E-001	-2.70128E-006	0.00000E+000	6.39985E-001	0.00000E+000	8	...........	1366.88
	245	4.92	6.10183E-001	-2.88238E-006	0.00000E+000	6.09993E-001	0.00000E+000	8	...........	1366.88
	248	4.98	5.80207E-001	-3.04703E-006	0.00000E+000	5.80001E-001	0.00000E+000	8	...........	1366.88
	251	5.04	5.50201E-001	-3.22942E-006	0.00000E+000	5.50008E-001	0.00000E+000	8	...........	1366.88
	254	5.1	5.20193E-001	-3.44185E-006	0.00000E+000	5.20016E-001	0.00000E+000	8	...........	1366.88
	257	5.16	4.90224E-001	-3.68764E-006	0.00000E+000	4.90024E-001	0.00000E+000	8	...........	1366.88
	260	5.22	4.60139E-001	-3.95484E-006	0.00000E+000	4.59981E-001	0.00000E+000	8	...........	1366.88
	263	5.28	4.30159E-001	-4.21740E-006	0.00000E+000	4.29989E-001	0.00000E+000	8	...........	1366.88
	266	5.34	4.00155E-001	-4.45523E-006	0.00000E+000	3.99997E-001	0.00000E+000	8	...........	1366.88
	269	5.4	3.70161E-001	-4.60935E-006	0.00000E+000	3.70004E-001	0.00000E+000	8	...........	1366.88
	272	5.46	3.40164E-001	-4.55886E-006	0.00000E+000	3.40012E-001	0.00000E+000	8	...........	1367.14
	275	5.52	3.10184E-001	-4.54549E-006	0.00000E+000	3.10020E-001	0.00000E+000	8	...........	1367.14
	278	5.58	2.80119E-001	-4.51315E-006	0.00000E+000	2.79977E-001	0.00000E+000	8	...........	1367.14
	281	5.64	2.50130E-001	-4.39340E-006	0.00000E+000	2.49985E-001	0.00000E+000	8	...........	1367.14
	284	5.7	2.20129E-001	-4.35474E-006	0.00000E+000	2.19993E-001	0.00000E+000	8	...........	1367.14
	287	5.76	1.90135E-001	-3.97995E-006	0.00000E+000	1.90000E-001	0.00000E+000	8	...........	1367.14
	290	5.82	1.60145E-001	-3.59431E-006	0.00000E+000	1.60008E-001	0.00000E+000	8	...........	1367.14
	293	5.88	1.30165E-001	-3.34451E-006	0.00000E+000	1.30016E-001	0.00000E+000	8	...........	1367.14
	296	5.94	1.00155E-001	-3.21469E-006	0.00000E+000	1.00023E-001	0.00000E+000	8	...........	1367.14
	299	6	7.01321E-002	-3.14797E-006	0.00000E+000	6.99811E-002	0.00000E+000	8	...........	1367.14
	302	6.06	4.01319E-002	-3.13049E-006	0.00000E+000	3.99887E-002	0.00000E+000	8	...........	1367.14
	305	6.12	1.01145E-002	-3.16397E-006	0.00000E+000	9.99641E-003	0.00000E+000	8	...........	1367.14
	308	6.18	-1.98990E-002	-3.25064E-006	0.00000E+000	-1.99959E-002	0.00000E+000	8	...........	1367.14
	311	6.24	-4.98668E-002	-3.27728E-006	0.00000E+000	-4.99882E-002	0.00000E+000	8	...........	1367.14
	314	6.3	-7.98706E-002	-3.29476E-006	0.00000E+000	-7.99806E-002	0.00000E+000	8	...........	1367.14
	317	6.36	-1.09900E-001	-3.37627E-006	0.00000E+000	-1.10023E-001	0.00000E+000	8	...........	1367.14
[...]
	690	13.82	-1.60119E-001	3.02535E-006	0.00000E+000	-1.60010E-001	0.00000E+000	8	...........	1366.79
	693	13.88	-1.30140E-001	3.03277E-006	0.00000E+000	-1.30018E-001	0.00000E+000	8	...........	1366.79
	696	13.94	-1.00086E-001	3.01352E-006	0.00000E+000	-9.99754E-002	0.00000E+000	8	...........	1366.79
	699	14	-7.00823E-002	2.98268E-006	0.00000E+000	-6.99831E-002	0.00000E+000	8	...........	1366.79
	702	14.06	-4.01114E-002	3.00359E-006	0.00000E+000	-3.99908E-002	0.00000E+000	8	...........	1366.79
	705	14.12	-1.01048E-002	3.08319E-006	0.00000E+000	-9.99847E-003	0.00000E+000	8	...........	1366.79
	708	14.18	1.99084E-002	3.08516E-006	0.00000E+000	1.99939E-002	0.00000E+000	8	...........	1366.79
	711	14.24	4.99019E-002	3.07902E-006	0.00000E+000	4.99862E-002	0.00000E+000	8	...........	1366.79
	714	14.3	7.99062E-002	3.11848E-006	0.00000E+000	7.99785E-002	0.00000E+000	8	...........	1366.79
	717	14.36	1.09944E-001	3.18987E-006	0.00000E+000	1.10021E-001	0.00000E+000	8	...........	1366.79
	720	14.42	1.39916E-001	3.28306E-006	0.00000E+000	1.40013E-001	0.00000E+000	8	...........	1366.79
	723	14.48	1.69911E-001	3.45943E-006	0.00000E+000	1.70005E-001	0.00000E+000	8	...........	1366.79
	726	14.54	1.99903E-001	3.79593E-006	0.00000E+000	1.99998E-001	0.00000E+000	8	...........	1366.79
	729	14.6	2.29921E-001	4.38823E-006	0.00000E+000	2.29990E-001	0.00000E+000	8	...........	1366.79
	732	14.66	2.59895E-001	4.78067E-006	0.00000E+000	2.59982E-001	0.00000E+000	8	...........	1366.79
	735	14.72	2.89949E-001	4.89260E-006	0.00000E+000	2.90025E-001	0.00000E+000	8	...........	1366.79
	738	14.78	3.19955E-001	4.85462E-006	0.00000E+000	3.20017E-001	0.00000E+000	8	...........	1366.79
	741	14.84	3.49955E-001	4.82560E-006	0.00000E+000	3.50009E-001	0.00000E+000	8	...........	1366.79
	744	14.9	3.79923E-001	4.78615E-006	0.00000E+000	3.80002E-001	0.00000E+000	8	...........	1366.79
	747	14.96	4.09949E-001	4.78758E-006	0.00000E+000	4.09994E-001	0.00000E+000	8	...........	1366.79
	750	15.02	4.39937E-001	4.61738E-006	0.00000E+000	4.39986E-001	0.00000E+000	8	...........	1366.79
	753	15.08	4.69921E-001	4.42055E-006	0.00000E+000	4.69979E-001	0.00000E+000	8	...........	1366.79
	756	15.14	4.99989E-001	4.21576E-006	0.00000E+000	5.00021E-001	0.00000E+000	8	...........	1366.79
	759	15.2	5.29963E-001	4.02810E-006	0.00000E+000	5.30013E-001	0.00000E+000	8	...........	1366.79
	762	15.26	5.59963E-001	3.87435E-006	0.00000E+000	5.60006E-001	0.00000E+000	8	...........	1366.79
	765	15.32	5.89975E-001	3.75596E-006	0.00000E+000	5.89998E-001	0.00000E+000	8	...........	1366.79
	768	15.38	6.19975E-001	3.65693E-006	0.00000E+000	6.19990E-001	0.00000E+000	8	...........	1366.79
	771	15.44	6.49952E-001	3.55893E-006	0.00000E+000	6.49983E-001	0.00000E+000	8	...........	1366.79
	774	15.5	6.80014E-001	3.41422E-006	0.00000E+000	6.80025E-001	0.00000E+000	8	...........	1366.79
	777	15.56	7.10008E-001	3.28269E-006	0.00000E+000	7.10017E-001	0.00000E+000	8	...........	1366.79
	780	15.62	7.39987E-001	3.27891E-006	0.00000E+000	7.40010E-001	0.00000E+000	8	...........	1366.79
	783	15.68	7.69994E-001	3.56026E-006	0.00000E+000	7.70002E-001	0.00000E+000	8	...........	1366.79
	786	15.74	7.99984E-001	4.51507E-006	0.00000E+000	7.99994E-001	0.00000E+000	8	...........	1366.79
CURVE4	TABLE
	Pt	T	Vf	Im	Vu	Sig	Ach	IERange	Over	Temp
	#	s	V vs. Ref.	A	V	V	V	#	bits	deg C
	787	15.76	7.90198E-001	4.33977E-007	0.00000E+000	7.89997E-001	0.00000E+000	8	...........	1366.79
	788	15.78	7.80187E-001	-3.93669E-007	0.00000E+000	7.79999E-001	0.00000E+000	8	...........	1366.79
	789	15.8	7.70209E-001	-8.84221E-007	0.00000E+000	7.70002E-001	0.00000E+000	8	...........	1366.79
	790	15.82	7.60203E-001	-1.20518E-006	0.00000E+000	7.60004E-001	0.00000E+000	8	...........	1366.79
	791	15.84	7.50212E-001	-1.43314E-006	0.00000E+000	7.50007E-001	0.00000E+000	8	...........	1366.79
	792	15.86	7.40204E-001	-1.60846E-006	0.00000E+000	7.40010E-001	0.00000E+000	8	...........	1366.79
	793	15.88	7.30228E-001	-1.75447E-006	0.00000E+000	7.30012E-001	0.00000E+000	8	...........	1366.79
	794	15.9	7.20212E-001	-1.88464E-006	0.00000E+000	7.20015E-001	0.00000E+000	8	...........	1366.79
	795	15.92	7.10230E-001	-2.00156E-006	0.00000E+000	7.10017E-001	0.00000E+000	8	...........	1366.79
	796	15.94	7.00209E-001	-2.11887E-006	0.00000E+000	7.00020E-001	0.00000E+000	8	...........	1366.79
	797	15.96	6.90207E-001	-2.23015E-006	0.00000E+000	6.90022E-001	0.00000E+000	8	...........	1366.79
	798	15.98	6.80231E-001	-2.33952E-006	0.00000E+000	6.80025E-001	0.00000E+000	8	...........	1366.79
	799	16	6.70174E-001	-2.45577E-006	0.00000E+000	6.69977E-001	0.00000E+000	8	...........	1366.79
	800	16.02	6.60175E-001	-2.54919E-006	0.00000E+000	6.59980E-001	0.00000E+000	8	...........	1366.79
	801	16.04	6.50175E-001	-2.64268E-006	0.00000E+000	6.49983E-001	0.00000E+000	8	...........	1366.79
	802	16.06	6.40179E-001	-2.72736E-006	0.00000E+000	6.39985E-001	0.00000E+000	8	...........	1366.79
	803	16.08	6.30186E-001	-2.79603E-006	0.00000E+000	6.29988E-001	0.00000E+000	8	...........	1366.79
	804	16.1	6.20177E-001	-2.85751E-006	0.00000E+000	6.19990E-001	0.00000E+000	8	...........	1366.79
	805	16.12	6.10178E-001	-2.91098E-006	0.00000E+000	6.09993E-001	0.00000E+000	8	...........	1366.79
	806	16.14	6.00160E-001	-2.96525E-006	0.00000E+000	5.99995E-001	0.00000E+000	8	...........	1366.79
	807	16.16	5.90184E-001	-3.01809E-006	0.00000E+000	5.89998E-001	0.00000E+000	8	...........	1366.79
	808	16.18	5.80181E-001	-3.07511E-006	0.00000E+000	5.80001E-001	0.00000E+000	8	...........	1366.79
	809	16.2	5.70185E-001	-3.13536E-006	0.00000E+000	5.70003E-001	0.00000E+000	8	...........	1366.79
	810	16.22	5.60177E-001	-3.19740E-006	0.00000E+000	5.60006E-001	0.00000E+000	8	...........	1366.79
	811	16.24	5.50190E-001	-3.26287E-006	0.00000E+000	5.50008E-001	0.00000E+000	8	...........	1366.79
	812	16.26	5.40189E-001	-3.33042E-006	0.00000E+000	5.40011E-001	0.00000E+000	8	...........	1366.79
	813	16.28	5.30193E-001	-3.40315E-006	0.00000E+000	5.30013E-001	0.00000E+000	8	...........	1366.79
	814	16.3	5.20198E-001	-3.48083E-006	0.00000E+000	5.20016E-001	0.00000E+000	8	...........	1366.79
	815	16.32	5.10187E-001	-3.56035E-006	0.00000E+000	5.10018E-001	0.00000E+000	8	...........	1366.79
	816	16.34	5.00218E-001	-3.64037E-006	0.00000E+000	5.00021E-001	0.00000E+000	8	...........	1366.79
	817	16.36	4.90226E-001	-3.73066E-006	0.00000E+000	4.90024E-001	0.00000E+000	8	...........	1366.79
	818	16.38	4.80172E-001	-3.83736E-006	0.00000E+000	4.79976E-001	0.00000E+000	8	...........	1366.79
	819	16.4	4.70156E-001	-3.91431E-006	0.00000E+000	4.69979E-001	0.00000E+000	8	...........	1366.79
	820	16.42	4.60162E-001	-4.00874E-006	0.00000E+000	4.59981E-001	0.00000E+000	8	...........	1366.79
	821	16.44	4.50168E-001	-4.09783E-006	0.00000E+000	4.49984E-001	0.00000E+000	8	...........	1366.79
	822	16.46	4.40167E-001	-4.19048E-006	0.00000E+000	4.39986E-001	0.00000E+000	8	...........	1366.79
	823	16.48	4.30167E-001	-4.27950E-006	0.00000E+000	4.29989E-001	0.00000E+000	8	...........	1366.79
	824	16.5	4.20167E-001	-4.36755E-006	0.00000E+000	4.19991E-001	0.00000E+000	8	...........	1366.79
	825	16.52	4.10173E-001	-4.45101E-006	0.00000E+000	4.09994E-001	0.00000E+000	8	...........	1366.79
	826	16.54	4.00167E-001	-4.52520E-006	0.00000E+000	3.99997E-001	0.00000E+000	8	...........	1366.79
	827	16.56	3.90171E-001	-4.59915E-006	0.00000E+000	3.89999E-001	0.00000E+000	8	...........	1366.79
	828	16.58	3.80161E-001	-4.65084E-006	0.00000E+000	3.80002E-001	0.00000E+000	8	...........	1366.79
	829	16.6	3.70168E-001	-4.66565E-006	0.00000E+000	3.70004E-001	0.00000E+000	8	...........	1366.79
	830	16.62	3.60173E-001	-4.64020E-006	0.00000E+000	3.60007E-001	0.00000E+000	8	...........	1366.79
	831	16.64	3.50176E-001	-4.61390E-006	0.00000E+000	3.50009E-001	0.00000E+000	8	...........	1366.79
	832	16.66	3.40172E-001	-4.60240E-006	0.00000E+000	3.40012E-001	0.00000E+000	8	...........	1366.79
	833	16.68	3.30166E-001	-4.60003E-006	0.00000E+000	3.30014E-001	0.00000E+000	8	...........	1366.79
	834	16.7	3.20178E-001	-4.59775E-006	0.00000E+000	3.20017E-001	0.00000E+000	8	...........	1366.79
	835	16.72	3.10184E-001	-4.59098E-006	0.00000E+000	3.10020E-001	0.00000E+000	8	...........	1366.79
	836	16.74	3.00178E-001	-4.57534E-006	0.00000E+000	3.00022E-001	0.00000E+000	8	...........	1366.79
	837	16.76	2.90186E-001	-4.56444E-006	0.00000E+000	2.90025E-001	0.00000E+000	8	...........	1366.79
	838	16.78	2.80139E-001	-4.55710E-006	0.00000E+000	2.79977E-001	0.00000E+000	8	...........	1366.79
	839	16.8	2.70141E-001	-4.50736E-006	0.00000E+000	2.69980E-001	0.00000E+000	8	...........	1366.79
	840	16.82	2.60138E-001	-4.47269E-006	0.00000E+000	2.59982E-001	0.00000E+000	8	...........	1366.79