File: Test_Data_Files/20250509_Y_IF0011_IIA42_E06_PBSair_PEDOT_CV50000.DTA
EXPLAIN
TAG	CV
TITLE	LABEL	CV50000	Test Identifier
DATE	LABEL	5/9/2025	Date
TIME	LABEL	15:18:21	Time
NOTES	NOTES	1	Notes...

PSTAT	PSTAT	REF600P-43058	Potentiostat
VINIT	POTEN	0.00000E+000	T	Initial E (V)
VLIMIT1	POTEN	-9.00000E-001	F	Scan Limit 1 (V)
VLIMIT2	POTEN	6.00000E-001	F	Scan Limit 2 (V)
VFINAL	POTEN	0.00000E+000	T	Final E (V)
SCANRATE	QUANT	4.99999E+004	Scan Rate (mV/s)
STEPSIZE	QUANT	1.00000E+001	Step Size (mV)
CYCLES	IQUANT	3	Cycles (#)
IMODE	SELECTOR	1	I/E Range Mode
IRANGE	QUANT	1.00000E-002	Max Current (mA)
AREA	QUANT	1.00000E+000	Sample Area (cm^2)
EQDELAY	QUANT	5.00000E+000	Equil. Time (s)
IRCOMP	SELECTOR	0	IRComp
PFCOR	QUANT	5.00000E+001	PF Corr. (ohm)
SAMPLINGMODE	SELECTOR	2	Sampling Mode
EOC	QUANT	0.1578626	Open Circuit (V)
ELECTRODETYPE	SELECTOR	0	Electrode Type
STRIPPING	TOGGLE	F	Used for Stripping
SEQUENCER	TOGGLE	TRUE	Run as Sequence
PSTATMODEL	IQUANT	7	Pstat Model
PSTATSECTION	LABEL	REF600P-43058	Pstat Section
PSTATSERIALNO	LABEL	43058	Pstat Serial Number
CTRLMODE	IQUANT	1	Control Mode
ELECTROMETER	IQUANT	0	RE=0 or CS=1
IESTAB	IQUANT	2	I/E Stability
CASPEED	IQUANT	4	Control Amp Speed
CONVENTION	IQUANT	1	Current Convention
ICHRANGE	IQUANT	2	Ich Range
ICHRANGEMODE	TOGGLE	F	Ich Auto Range
ICHOFFSETENABLE	TOGGLE	F	Ich Offset Enable
ICHOFFSET	QUANT	0	Ich Offset (V)
ICHFILTER	IQUANT	1	Ich Filter
VCHRANGE	IQUANT	2	Vch Range
VCHRANGEMODE	TOGGLE	F	Vch Auto Range
VCHOFFSETENABLE	TOGGLE	F	Vch Offset Enable
VCHOFFSET	QUANT	0	Vch Offset (V)
VCHFILTER	IQUANT	1	Vch Filter
ACHRANGE	IQUANT	2	Ach Range
ACHOFFSETENABLE	TOGGLE	F	Ach Offset Enable
ACHOFFSET	QUANT	0	Ach Offset (V)
ACHFILTER	IQUANT	1	Ach Filter
IERANGELOWERLIMIT	IQUANT	1	I/E Range Lower Limit
IERANGEMODE	TOGGLE	F	I/E AutoRange
IERANGE	IQUANT	7	I/E Range
POSFEEDENABLE	TOGGLE	F	Positive Feedback IR Comp
POSFEEDRESISTANCE	QUANT	0	Positive Feedback Resistance (ohm)
ACHSELECT	IQUANT	4	Ach Select
SENSECABLEID	IQUANT	7	Sense Cable ID
PWRCABLEID	IQUANT	7	Power Cable ID
DCCALDATE	LABEL	5/8/2025	DC Calibration Date
ACCALDATE	LABEL	5/8/2025	AC Calibration Date
THERMOSELECT	IQUANT	1	Thermo Select
FRAMEWORKVERSION	LABEL	7.10.4	Framework Version
INSTRUMENTVERSION	LABEL	5.01	Instrument Version
COMMVERSION	LABEL	5.10	Communications Version
CPUPLDVERSION	LABEL	6.00	CPU PLD Version
CTRLPLDVERSION	LABEL	3.21	CTRL PLD Version
PSTATPLDVERSION	LABEL	0.00	PSTAT PLD Version
CURVE1	TABLE
	Pt	T	Vf	Im	Vu	Sig	Ach	IERange	Over	Temp
	#	s	V vs. Ref.	A	V	V	V	#	bits	deg C
	0	0.0002	1.57912E-001	8.65508E-009	0.00000E+000	1.57850E-001	1.11522E-003	7	...........	-327.66
	3	0.0008	1.27937E-001	-3.28329E-006	0.00000E+000	1.27850E-001	9.65224E-004	7	...........	-327.66
	6	0.0014	9.80123E-002	-5.45484E-006	0.00000E+000	9.78500E-002	1.04022E-003	7	...........	-327.66
	9	0.002	6.79623E-002	-7.13482E-006	0.00000E+000	6.78500E-002	1.19022E-003	7	...........	-327.66
	12	0.0026	3.79873E-002	-8.56926E-006	0.00000E+000	3.78500E-002	1.29022E-003	7	...........	-327.66
	15	0.0032	7.93731E-003	-9.84594E-006	0.00000E+000	7.84999E-003	1.06522E-003	7	...........	-327.66
	18	0.0038	-2.20002E-002	-1.10298E-005	0.00000E+000	-2.21500E-002	1.19022E-003	7	...........	-327.66
	21	0.0044	-5.20252E-002	-1.21528E-005	0.00000E+000	-5.21500E-002	1.11522E-003	7	...........	-327.66
	24	0.005	-8.20752E-002	-1.32266E-005	0.00000E+000	-8.21500E-002	1.06522E-003	7	...........	-327.66
	27	0.0056	-1.12088E-001	-1.42720E-005	0.00000E+000	-1.12150E-001	1.04022E-003	7	...........	-327.66
	30	0.0062	-1.42013E-001	-1.52899E-005	0.00000E+000	-1.42150E-001	1.24022E-003	7	...........	-327.66
	33	0.0068	-1.71950E-001	-1.62933E-005	0.00000E+000	-1.72150E-001	1.24022E-003	7	...........	-327.66
	36	0.0074	-2.02013E-001	-1.72937E-005	0.00000E+000	-2.02150E-001	1.11522E-003	7	...........	-327.66
	39	0.008	-2.32063E-001	-1.82851E-005	0.00000E+000	-2.32150E-001	1.09022E-003	7	...........	-327.66
	42	0.0086	-2.61913E-001	-1.92700E-005	0.00000E+000	-2.62150E-001	1.04022E-003	7	...........	-327.66
	45	0.0092	-2.91950E-001	-2.02554E-005	0.00000E+000	-2.92150E-001	1.21522E-003	7	...........	-327.66
	48	0.0098	-3.21950E-001	-2.12410E-005	0.00000E+000	-3.22150E-001	1.11522E-003	7	...........	-327.66
	51	0.0104	-3.52038E-001	-2.22161E-005	0.00000E+000	-3.52150E-001	1.21522E-003	7	...........	-327.66
	54	0.011	-3.81925E-001	-2.31968E-005	0.00000E+000	-3.82150E-001	1.16522E-003	7	...........	-327.66
	57	0.0116	-4.11950E-001	-2.41646E-005	0.00000E+000	-4.12150E-001	1.01522E-003	7	...........	-327.66
	60	0.0122	-4.41813E-001	-2.51333E-005	0.00000E+000	-4.42150E-001	1.14022E-003	7	...........	-327.66
	63	0.0128	-4.71988E-001	-2.60924E-005	0.00000E+000	-4.72150E-001	1.11522E-003	7	...........	-327.66
	66	0.0134	-5.01825E-001	-2.70380E-005	0.00000E+000	-5.02150E-001	1.04022E-003	7	...........	-327.66
	69	0.014	-5.31950E-001	-2.79724E-005	0.00000E+000	-5.32150E-001	1.24022E-003	7	...........	-327.66
	72	0.0146	-5.61913E-001	-2.88908E-005	0.00000E+000	-5.62150E-001	1.04022E-003	7	...........	-327.66
	75	0.0152	-5.91913E-001	-2.97844E-005	0.00000E+000	-5.92150E-001	9.40224E-004	7	...........	-327.66
	78	0.0158	-6.21725E-001	-3.06460E-005	0.00000E+000	-6.22150E-001	1.06522E-003	7	...........	-327.66
	81	0.0164	-6.51775E-001	-3.14761E-005	0.00000E+000	-6.52150E-001	9.40224E-004	7	...........	-327.66
	84	0.017	-6.81863E-001	-3.22627E-005	0.00000E+000	-6.82150E-001	1.06522E-003	7	...........	-327.66
	87	0.0176	-7.11875E-001	-3.29968E-005	0.00000E+000	-7.12150E-001	9.40224E-004	7	...........	-327.66
	90	0.0182	-7.41750E-001	-3.36654E-005	0.00000E+000	-7.42150E-001	1.11522E-003	7	...........	-327.66
	93	0.0188	-7.71750E-001	-3.42478E-005	0.00000E+000	-7.72150E-001	9.90224E-004	7	...........	-327.66
	96	0.0194	-8.01813E-001	-3.47298E-005	0.00000E+000	-8.02150E-001	1.06522E-003	7	...........	-327.66
	99	0.02	-8.31875E-001	-3.50786E-005	0.00000E+000	-8.32150E-001	1.06522E-003	7	...........	-327.66
	102	0.0206	-8.61813E-001	-3.52629E-005	0.00000E+000	-8.62150E-001	1.01522E-003	7	...........	-327.66
	105	0.0212	-8.91875E-001	-3.52557E-005	0.00000E+000	-8.92150E-001	1.11522E-003	7	...........	-327.66
	108	0.0218	-8.81650E-001	-3.10338E-005	0.00000E+000	-8.82150E-001	1.09022E-003	7	...........	-327.66
	111	0.0224	-8.51988E-001	-2.63972E-005	0.00000E+000	-8.52150E-001	9.90224E-004	7	...........	-327.66
	114	0.023	-8.21800E-001	-2.27139E-005	0.00000E+000	-8.22150E-001	9.40224E-004	7	...........	-327.66
	117	0.0236	-7.92013E-001	-1.94570E-005	0.00000E+000	-7.92150E-001	1.06522E-003	7	...........	-327.66
	120	0.0242	-7.61925E-001	-1.64498E-005	0.00000E+000	-7.62150E-001	1.21522E-003	7	...........	-327.66
	123	0.0248	-7.31900E-001	-1.36040E-005	0.00000E+000	-7.32150E-001	1.09022E-003	7	...........	-327.66
	126	0.0254	-7.01800E-001	-1.08888E-005	0.00000E+000	-7.02150E-001	1.09022E-003	7	...........	-327.66
	129	0.026	-6.71988E-001	-8.29748E-006	0.00000E+000	-6.72150E-001	1.04022E-003	7	...........	-327.66
	132	0.0266	-6.42000E-001	-5.81139E-006	0.00000E+000	-6.42150E-001	1.19022E-003	7	...........	-327.66
	135	0.0272	-6.12013E-001	-3.43056E-006	0.00000E+000	-6.12150E-001	1.09022E-003	7	...........	-327.66
	138	0.0278	-5.81988E-001	-1.15400E-006	0.00000E+000	-5.82150E-001	1.29022E-003	7	...........	-327.66
	141	0.0284	-5.52000E-001	1.01979E-006	0.00000E+000	-5.52150E-001	1.24022E-003	7	...........	-327.66
	144	0.029	-5.22125E-001	3.09483E-006	0.00000E+000	-5.22150E-001	1.11522E-003	7	...........	-327.66
	147	0.0296	-4.92063E-001	5.09035E-006	0.00000E+000	-4.92150E-001	1.21522E-003	7	...........	-327.66
	150	0.0302	-4.62000E-001	6.99836E-006	0.00000E+000	-4.62150E-001	1.16522E-003	7	...........	-327.66
	153	0.0308	-4.32088E-001	8.82636E-006	0.00000E+000	-4.32150E-001	1.19022E-003	7	...........	-327.66
	156	0.0314	-4.02088E-001	1.05781E-005	0.00000E+000	-4.02150E-001	1.01522E-003	7	...........	-327.66
	159	0.032	-3.72000E-001	1.22498E-005	0.00000E+000	-3.72150E-001	1.14022E-003	7	...........	-327.66
	162	0.0326	-3.42063E-001	1.38498E-005	0.00000E+000	-3.42150E-001	1.14022E-003	7	...........	-327.66
	165	0.0332	-3.12088E-001	1.53685E-005	0.00000E+000	-3.12150E-001	1.21522E-003	7	...........	-327.66
	168	0.0338	-2.82150E-001	1.68009E-005	0.00000E+000	-2.82150E-001	1.04022E-003	7	...........	-327.66
	171	0.0344	-2.52050E-001	1.81504E-005	0.00000E+000	-2.52150E-001	1.14022E-003	7	...........	-327.66
	174	0.035	-2.22088E-001	1.94090E-005	0.00000E+000	-2.22150E-001	1.14022E-003	7	...........	-327.66
	177	0.0356	-1.92075E-001	2.05792E-005	0.00000E+000	-1.92150E-001	1.04022E-003	7	...........	-327.66
	180	0.0362	-1.62175E-001	2.16559E-005	0.00000E+000	-1.62150E-001	1.04022E-003	7	...........	-327.66
	183	0.0368	-1.32075E-001	2.26450E-005	0.00000E+000	-1.32150E-001	1.09022E-003	7	...........	-327.66
	186	0.0374	-1.02213E-001	2.35494E-005	0.00000E+000	-1.02150E-001	1.14022E-003	7	...........	-327.66
	189	0.038	-7.21377E-002	2.43712E-005	0.00000E+000	-7.21500E-002	1.24022E-003	7	...........	-327.66
	192	0.0386	-4.22377E-002	2.51233E-005	0.00000E+000	-4.21500E-002	1.09022E-003	7	...........	-327.66
	195	0.0392	-1.20377E-002	2.57972E-005	0.00000E+000	-1.21500E-002	1.24022E-003	7	...........	-327.66
	198	0.0398	1.78873E-002	2.64055E-005	0.00000E+000	1.78500E-002	1.29022E-003	7	...........	-327.66
	201	0.0404	4.77998E-002	2.69521E-005	0.00000E+000	4.78500E-002	1.09022E-003	7	...........	-327.66
	204	0.041	7.78748E-002	2.74369E-005	0.00000E+000	7.78500E-002	1.11522E-003	7	...........	-327.66
	207	0.0416	1.07887E-001	2.78549E-005	0.00000E+000	1.07850E-001	1.24022E-003	7	...........	-327.66
	210	0.0422	1.37900E-001	2.82097E-005	0.00000E+000	1.37850E-001	1.06522E-003	7	...........	-327.66
	213	0.0428	1.67900E-001	2.84855E-005	0.00000E+000	1.67850E-001	1.19022E-003	7	...........	-327.66
	216	0.0434	1.97787E-001	2.86828E-005	0.00000E+000	1.97850E-001	1.14022E-003	7	...........	-327.66
	219	0.044	2.27837E-001	2.88003E-005	0.00000E+000	2.27850E-001	1.19022E-003	7	...........	-327.66
	222	0.0446	2.57712E-001	2.88491E-005	0.00000E+000	2.57850E-001	9.65224E-004	7	...........	-327.66
	225	0.0452	2.87825E-001	2.88458E-005	0.00000E+000	2.87850E-001	1.11522E-003	7	...........	-327.66
	228	0.0458	3.17812E-001	2.87998E-005	0.00000E+000	3.17850E-001	1.01522E-003	7	...........	-327.66
	231	0.0464	3.47900E-001	2.87268E-005	0.00000E+000	3.47850E-001	1.01522E-003	7	...........	-327.66
	234	0.047	3.77787E-001	2.86376E-005	0.00000E+000	3.77850E-001	1.21522E-003	7	...........	-327.66
	237	0.0476	4.07825E-001	2.85320E-005	0.00000E+000	4.07850E-001	1.11522E-003	7	...........	-327.66
	240	0.0482	4.37762E-001	2.84220E-005	0.00000E+000	4.37850E-001	1.14022E-003	7	...........	-327.66
	243	0.0488	4.67887E-001	2.83203E-005	0.00000E+000	4.67850E-001	1.14022E-003	7	...........	-327.66
	246	0.0494	4.97825E-001	2.82200E-005	0.00000E+000	4.97850E-001	1.19022E-003	7	...........	-327.66
	249	0.05	5.27912E-001	2.81415E-005	0.00000E+000	5.27850E-001	1.21522E-003	7	...........	-327.66
	252	0.0506	5.57762E-001	2.80810E-005	0.00000E+000	5.57850E-001	1.14022E-003	7	...........	-327.66
	255	0.0512	5.87862E-001	2.80445E-005	0.00000E+000	5.87850E-001	1.06522E-003	7	...........	-327.66
	256	0.0514	5.97712E-001	2.80365E-005	0.00000E+000	5.97850E-001	1.06522E-003	7	...........	-327.66
CURVE2	TABLE
	Pt	T	Vf	Im	Vu	Sig	Ach	IERange	Over	Temp
	#	s	V vs. Ref.	A	V	V	V	#	bits	deg C
	257	0.0516	5.90037E-001	2.58292E-005	0.00000E+000	5.90000E-001	1.11522E-003	7	...........	-327.66
	261	0.0524	5.50000E-001	1.85049E-005	0.00000E+000	5.50000E-001	1.14022E-003	7	...........	-327.66
	265	0.0532	5.09912E-001	1.38488E-005	0.00000E+000	5.10000E-001	1.06522E-003	7	...........	-327.66
	269	0.054	4.69912E-001	1.02328E-005	0.00000E+000	4.70000E-001	1.09022E-003	7	...........	-327.66
	273	0.0548	4.30037E-001	7.19588E-006	0.00000E+000	4.30000E-001	1.09022E-003	7	...........	-327.66
	277	0.0556	3.90000E-001	4.54427E-006	0.00000E+000	3.90000E-001	1.04022E-003	7	...........	-327.66
	281	0.0564	3.50025E-001	2.16845E-006	0.00000E+000	3.50000E-001	9.65224E-004	7	...........	-327.66
	285	0.0572	3.09987E-001	7.65495E-009	0.00000E+000	3.10000E-001	1.06522E-003	7	...........	-327.66
	289	0.058	2.70137E-001	-1.98737E-006	0.00000E+000	2.70000E-001	1.19022E-003	7	...........	-327.66
	293	0.0588	2.30062E-001	-3.84712E-006	0.00000E+000	2.30000E-001	1.21522E-003	7	...........	-327.66
	297	0.0596	1.90162E-001	-5.59661E-006	0.00000E+000	1.90000E-001	1.21522E-003	7	...........	-327.66
	301	0.0604	1.50112E-001	-7.25333E-006	0.00000E+000	1.50000E-001	9.90224E-004	7	...........	-327.66
	305	0.0612	1.10137E-001	-8.83880E-006	0.00000E+000	1.10000E-001	1.29022E-003	7	...........	-327.66
	309	0.062	7.01873E-002	-1.03575E-005	0.00000E+000	7.00000E-002	1.04022E-003	7	...........	-327.66
	313	0.0628	3.01873E-002	-1.18240E-005	0.00000E+000	3.00000E-002	9.90224E-004	7	...........	-327.66
	317	0.0636	-9.71269E-003	-1.32379E-005	0.00000E+000	-1.00000E-002	1.21522E-003	7	...........	-327.66
	321	0.0644	-4.97627E-002	-1.46066E-005	0.00000E+000	-5.00000E-002	1.24022E-003	7	...........	-327.66
	325	0.0652	-8.98377E-002	-1.59328E-005	0.00000E+000	-9.00000E-002	1.11522E-003	7	...........	-327.66
	329	0.066	-1.29863E-001	-1.72289E-005	0.00000E+000	-1.30000E-001	1.04022E-003	7	...........	-327.66
	333	0.0668	-1.69750E-001	-1.84984E-005	0.00000E+000	-1.70000E-001	1.06522E-003	7	...........	-327.66
	337	0.0676	-2.09750E-001	-1.97568E-005	0.00000E+000	-2.10000E-001	1.11522E-003	7	...........	-327.66
	341	0.0684	-2.49750E-001	-2.10097E-005	0.00000E+000	-2.50000E-001	1.01522E-003	7	...........	-327.66
	345	0.0692	-2.89738E-001	-2.22459E-005	0.00000E+000	-2.90000E-001	9.65224E-004	7	...........	-327.66
	349	0.07	-3.29788E-001	-2.34725E-005	0.00000E+000	-3.30000E-001	1.11522E-003	7	...........	-327.66
	353	0.0708	-3.69700E-001	-2.46850E-005	0.00000E+000	-3.70000E-001	1.29022E-003	7	...........	-327.66
	357	0.0716	-4.09813E-001	-2.58834E-005	0.00000E+000	-4.10000E-001	1.11522E-003	7	...........	-327.66
	361	0.0724	-4.49688E-001	-2.70548E-005	0.00000E+000	-4.50000E-001	1.01522E-003	7	...........	-327.66
	365	0.0732	-4.89663E-001	-2.82017E-005	0.00000E+000	-4.90000E-001	1.19022E-003	7	...........	-327.66
	369	0.074	-5.29738E-001	-2.93146E-005	0.00000E+000	-5.30000E-001	1.16522E-003	7	...........	-327.66
	373	0.0748	-5.69663E-001	-3.03755E-005	0.00000E+000	-5.70000E-001	1.01522E-003	7	...........	-327.66
	377	0.0756	-6.09788E-001	-3.13879E-005	0.00000E+000	-6.10000E-001	1.11522E-003	7	...........	-327.66
	381	0.0764	-6.49688E-001	-3.23370E-005	0.00000E+000	-6.50000E-001	1.16522E-003	7	...........	-327.66
	385	0.0772	-6.89675E-001	-3.32046E-005	0.00000E+000	-6.90000E-001	1.19022E-003	7	...........	-327.66
	389	0.078	-7.29663E-001	-3.39772E-005	0.00000E+000	-7.30000E-001	1.11522E-003	7	...........	-327.66
	393	0.0788	-7.69663E-001	-3.46243E-005	0.00000E+000	-7.70000E-001	1.16522E-003	7	...........	-327.66
	397	0.0796	-8.09675E-001	-3.51176E-005	0.00000E+000	-8.10000E-001	1.19022E-003	7	...........	-327.66
	401	0.0804	-8.49688E-001	-3.54269E-005	0.00000E+000	-8.50000E-001	1.21522E-003	7	...........	-327.66
	405	0.0812	-8.89700E-001	-3.54852E-005	0.00000E+000	-8.90000E-001	1.21522E-003	7	...........	-327.66
	409	0.082	-8.69713E-001	-2.92173E-005	0.00000E+000	-8.70000E-001	1.19022E-003	7	...........	-327.66
	413	0.0828	-8.29663E-001	-2.31998E-005	0.00000E+000	-8.30000E-001	1.14022E-003	7	...........	-327.66
	417	0.0836	-7.89650E-001	-1.82866E-005	0.00000E+000	-7.90000E-001	1.14022E-003	7	...........	-327.66
	421	0.0844	-7.49700E-001	-1.39382E-005	0.00000E+000	-7.50000E-001	1.14022E-003	7	...........	-327.66
	425	0.0852	-7.09650E-001	-9.98946E-006	0.00000E+000	-7.10000E-001	1.06522E-003	7	...........	-327.66
	429	0.086	-6.69750E-001	-6.37171E-006	0.00000E+000	-6.70000E-001	1.14022E-003	7	...........	-327.66
	433	0.0868	-6.29700E-001	-3.05226E-006	0.00000E+000	-6.30000E-001	9.90224E-004	7	...........	-327.66
	437	0.0876	-5.89825E-001	8.15501E-009	0.00000E+000	-5.90000E-001	1.14022E-003	7	...........	-327.66
	441	0.0884	-5.49800E-001	2.85429E-006	0.00000E+000	-5.50000E-001	1.09022E-003	7	...........	-327.66
	445	0.0892	-5.09888E-001	5.53116E-006	0.00000E+000	-5.10000E-001	1.24022E-003	7	...........	-327.66
	449	0.09	-4.69788E-001	8.07375E-006	0.00000E+000	-4.70000E-001	1.06522E-003	7	...........	-327.66
	453	0.0908	-4.29975E-001	1.05066E-005	0.00000E+000	-4.30000E-001	1.19022E-003	7	...........	-327.66
	457	0.0916	-3.89913E-001	1.28297E-005	0.00000E+000	-3.90000E-001	1.04022E-003	7	...........	-327.66
	461	0.0924	-3.49938E-001	1.50350E-005	0.00000E+000	-3.50000E-001	1.04022E-003	7	...........	-327.66
	465	0.0932	-3.10013E-001	1.71057E-005	0.00000E+000	-3.10000E-001	1.04022E-003	7	...........	-327.66
	469	0.094	-2.69838E-001	1.90307E-005	0.00000E+000	-2.70000E-001	1.14022E-003	7	...........	-327.66
	473	0.0948	-2.30013E-001	2.07777E-005	0.00000E+000	-2.30000E-001	9.65224E-004	7	...........	-327.66
	477	0.0956	-1.90025E-001	2.23457E-005	0.00000E+000	-1.90000E-001	9.65224E-004	7	...........	-327.66
	481	0.0964	-1.50000E-001	2.37384E-005	0.00000E+000	-1.50000E-001	8.90224E-004	7	...........	-327.66
	485	0.0972	-1.09938E-001	2.49676E-005	0.00000E+000	-1.10000E-001	1.11522E-003	7	...........	-327.66
	489	0.098	-7.00377E-002	2.60402E-005	0.00000E+000	-7.00000E-002	1.04022E-003	7	...........	-327.66
	493	0.0988	-3.00877E-002	2.69871E-005	0.00000E+000	-3.00000E-002	1.01522E-003	7	...........	-327.66
[...]
	693	0.1388	-7.69650E-001	-3.50459E-005	0.00000E+000	-7.70000E-001	1.24022E-003	7	...........	-327.66
	697	0.1396	-8.09638E-001	-3.54952E-005	0.00000E+000	-8.10000E-001	1.06522E-003	7	...........	-327.66
	701	0.1404	-8.49650E-001	-3.57485E-005	0.00000E+000	-8.50000E-001	9.65224E-004	7	...........	-327.66
	705	0.1412	-8.89688E-001	-3.57730E-005	0.00000E+000	-8.90000E-001	1.06522E-003	7	...........	-327.66
	709	0.142	-8.69663E-001	-2.93726E-005	0.00000E+000	-8.70000E-001	1.19022E-003	7	...........	-327.66
	713	0.1428	-8.29650E-001	-2.31535E-005	0.00000E+000	-8.30000E-001	1.24022E-003	7	...........	-327.66
	717	0.1436	-7.89713E-001	-1.80693E-005	0.00000E+000	-7.90000E-001	1.14022E-003	7	...........	-327.66
	721	0.1444	-7.49738E-001	-1.35995E-005	0.00000E+000	-7.50000E-001	1.09022E-003	7	...........	-327.66
	725	0.1452	-7.09750E-001	-9.56965E-006	0.00000E+000	-7.10000E-001	1.16522E-003	7	...........	-327.66
	729	0.146	-6.69675E-001	-5.92865E-006	0.00000E+000	-6.70000E-001	1.29022E-003	7	...........	-327.66
	733	0.1468	-6.29725E-001	-2.61620E-006	0.00000E+000	-6.30000E-001	1.16522E-003	7	...........	-327.66
	737	0.1476	-5.89813E-001	4.23712E-007	0.00000E+000	-5.90000E-001	1.21522E-003	7	...........	-327.66
	741	0.1484	-5.49700E-001	3.23960E-006	0.00000E+000	-5.50000E-001	1.14022E-003	7	...........	-327.66
	745	0.1492	-5.09813E-001	5.90171E-006	0.00000E+000	-5.10000E-001	9.65224E-004	7	...........	-327.66
	749	0.15	-4.69750E-001	8.44080E-006	0.00000E+000	-4.70000E-001	1.21522E-003	7	...........	-327.66
	753	0.1508	-4.29900E-001	1.08771E-005	0.00000E+000	-4.30000E-001	1.11522E-003	7	...........	-327.66
	757	0.1516	-3.89875E-001	1.32260E-005	0.00000E+000	-3.90000E-001	1.29022E-003	7	...........	-327.66
	761	0.1524	-3.49950E-001	1.54690E-005	0.00000E+000	-3.50000E-001	1.16522E-003	7	...........	-327.66
	765	0.1532	-3.10050E-001	1.75785E-005	0.00000E+000	-3.10000E-001	1.06522E-003	7	...........	-327.66
	769	0.154	-2.69875E-001	1.95271E-005	0.00000E+000	-2.70000E-001	1.19022E-003	7	...........	-327.66
	773	0.1548	-2.30025E-001	2.12973E-005	0.00000E+000	-2.30000E-001	1.24022E-003	7	...........	-327.66
	777	0.1556	-1.89963E-001	2.28750E-005	0.00000E+000	-1.90000E-001	1.09022E-003	7	...........	-327.66
	781	0.1564	-1.50025E-001	2.42740E-005	0.00000E+000	-1.50000E-001	1.16522E-003	7	...........	-327.66
	785	0.1572	-1.09988E-001	2.54999E-005	0.00000E+000	-1.10000E-001	1.21522E-003	7	...........	-327.66
	789	0.158	-7.00877E-002	2.65768E-005	0.00000E+000	-7.00000E-002	1.19022E-003	7	...........	-327.66
	793	0.1588	-3.00252E-002	2.75307E-005	0.00000E+000	-3.00000E-002	9.15224E-004	7	...........	-327.66
	797	0.1596	9.99981E-003	2.83908E-005	0.00000E+000	9.99999E-003	1.04022E-003	7	...........	-327.66
	801	0.1604	5.00623E-002	2.91514E-005	0.00000E+000	5.00000E-002	1.16522E-003	7	...........	-327.66
	805	0.1612	9.00373E-002	2.97532E-005	0.00000E+000	9.00000E-002	9.65224E-004	7	...........	-327.66
	809	0.162	1.29987E-001	3.01955E-005	0.00000E+000	1.30000E-001	1.19022E-003	7	...........	-327.66
	813	0.1628	1.70000E-001	3.04761E-005	0.00000E+000	1.70000E-001	1.29022E-003	7	...........	-327.66
	817	0.1636	2.09975E-001	3.06156E-005	0.00000E+000	2.10000E-001	1.11522E-003	7	...........	-327.66
	821	0.1644	2.50025E-001	3.06356E-005	0.00000E+000	2.50000E-001	1.14022E-003	7	...........	-327.66
	825	0.1652	2.89962E-001	3.05878E-005	0.00000E+000	2.90000E-001	1.04022E-003	7	...........	-327.66
	829	0.166	3.30037E-001	3.04838E-005	0.00000E+000	3.30000E-001	1.01522E-003	7	...........	-327.66
	833	0.1668	3.69937E-001	3.03463E-005	0.00000E+000	3.70000E-001	1.19022E-003	7	...........	-327.66
	837	0.1676	4.09875E-001	3.01913E-005	0.00000E+000	4.10000E-001	1.06522E-003	7	...........	-327.66
	841	0.1684	4.50087E-001	3.00367E-005	0.00000E+000	4.50000E-001	1.11522E-003	7	...........	-327.66
	845	0.1692	4.89950E-001	2.99010E-005	0.00000E+000	4.90000E-001	1.14022E-003	7	...........	-327.66
	849	0.17	5.29962E-001	2.97987E-005	0.00000E+000	5.30000E-001	1.19022E-003	7	...........	-327.66
	853	0.1708	5.69900E-001	2.97470E-005	0.00000E+000	5.70000E-001	1.16522E-003	7	...........	-327.66
	856	0.1714	5.99950E-001	2.97425E-005	0.00000E+000	6.00000E-001	1.04022E-003	7	...........	-327.66
CURVE4	TABLE
	Pt	T	Vf	Im	Vu	Sig	Ach	IERange	Over	Temp
	#	s	V vs. Ref.	A	V	V	V	#	bits	deg C
	857	0.1716	5.89987E-001	2.72291E-005	0.00000E+000	5.90000E-001	1.04022E-003	7	...........	-327.66
	858	0.1718	5.79987E-001	2.48768E-005	0.00000E+000	5.80000E-001	9.90224E-004	7	...........	-327.66
	859	0.172	5.69950E-001	2.29220E-005	0.00000E+000	5.70000E-001	1.06522E-003	7	...........	-327.66
	860	0.1722	5.59937E-001	2.12275E-005	0.00000E+000	5.60000E-001	9.40224E-004	7	...........	-327.66
	861	0.1724	5.49962E-001	1.97163E-005	0.00000E+000	5.50000E-001	1.11522E-003	7	...........	-327.66
	862	0.1726	5.39937E-001	1.83424E-005	0.00000E+000	5.40000E-001	1.21522E-003	7	...........	-327.66
	863	0.1728	5.29937E-001	1.70792E-005	0.00000E+000	5.30000E-001	1.14022E-003	7	...........	-327.66
	864	0.173	5.19950E-001	1.58986E-005	0.00000E+000	5.20000E-001	1.09022E-003	7	...........	-327.66
	865	0.1732	5.09937E-001	1.47937E-005	0.00000E+000	5.10000E-001	9.15224E-004	7	...........	-327.66
	866	0.1734	5.00025E-001	1.37508E-005	0.00000E+000	5.00000E-001	1.14022E-003	7	...........	-327.66
	867	0.1736	4.89937E-001	1.27589E-005	0.00000E+000	4.90000E-001	1.24022E-003	7	...........	-327.66
	868	0.1738	4.79912E-001	1.18070E-005	0.00000E+000	4.80000E-001	1.19022E-003	7	...........	-327.66
	869	0.174	4.69925E-001	1.08994E-005	0.00000E+000	4.70000E-001	1.11522E-003	7	...........	-327.66
	870	0.1742	4.59962E-001	1.00283E-005	0.00000E+000	4.60000E-001	1.06522E-003	7	...........	-327.66
	871	0.1744	4.50137E-001	9.18866E-006	0.00000E+000	4.50000E-001	1.19022E-003	7	...........	-327.66
	872	0.1746	4.39987E-001	8.37805E-006	0.00000E+000	4.40000E-001	1.04022E-003	7	...........	-327.66
	873	0.1748	4.30037E-001	7.59469E-006	0.00000E+000	4.30000E-001	1.09022E-003	7	...........	-327.66
	874	0.175	4.20050E-001	6.83234E-006	0.00000E+000	4.20000E-001	1.06522E-003	7	...........	-327.66
	875	0.1752	4.09950E-001	6.09924E-006	0.00000E+000	4.10000E-001	1.09022E-003	7	...........	-327.66
	876	0.1754	4.00050E-001	5.38589E-006	0.00000E+000	4.00000E-001	1.14022E-003	7	...........	-327.66
	877	0.1756	3.90000E-001	4.69379E-006	0.00000E+000	3.90000E-001	1.11522E-003	7	...........	-327.66
	878	0.1758	3.79937E-001	4.01170E-006	0.00000E+000	3.80000E-001	1.06522E-003	7	...........	-327.66
	879	0.176	3.70112E-001	3.35636E-006	0.00000E+000	3.70000E-001	1.16522E-003	7	...........	-327.66
	880	0.1762	3.59987E-001	2.71177E-006	0.00000E+000	3.60000E-001	9.65224E-004	7	...........	-327.66
	881	0.1764	3.50087E-001	2.08644E-006	0.00000E+000	3.50000E-001	1.06522E-003	7	...........	-327.66
	882	0.1766	3.40012E-001	1.47711E-006	0.00000E+000	3.40000E-001	1.11522E-003	7	...........	-327.66
	883	0.1768	3.29987E-001	8.77524E-007	0.00000E+000	3.30000E-001	1.14022E-003	7	...........	-327.66
	884	0.177	3.20062E-001	2.88943E-007	0.00000E+000	3.20000E-001	1.11522E-003	7	...........	-327.66
	885	0.1772	3.10200E-001	-2.85885E-007	0.00000E+000	3.10000E-001	1.14022E-003	7	...........	-327.66
	886	0.1774	2.99975E-001	-8.46711E-007	0.00000E+000	3.00000E-001	1.14022E-003	7	...........	-327.66
	887	0.1776	2.90125E-001	-1.39654E-006	0.00000E+000	2.90000E-001	1.16522E-003	7	...........	-327.66
	888	0.1778	2.80062E-001	-1.93236E-006	0.00000E+000	2.80000E-001	1.16522E-003	7	...........	-327.66
	889	0.178	2.70175E-001	-2.46718E-006	0.00000E+000	2.70000E-001	1.09022E-003	7	...........	-327.66
	890	0.1782	2.59962E-001	-2.98625E-006	0.00000E+000	2.60000E-001	1.06522E-003	7	...........	-327.66
	891	0.1784	2.50175E-001	-3.49407E-006	0.00000E+000	2.50000E-001	1.19022E-003	7	...........	-327.66
	892	0.1786	2.40100E-001	-3.99664E-006	0.00000E+000	2.40000E-001	1.09022E-003	7	...........	-327.66
	893	0.1788	2.30000E-001	-4.49246E-006	0.00000E+000	2.30000E-001	1.11522E-003	7	...........	-327.66
	894	0.179	2.19950E-001	-4.98152E-006	0.00000E+000	2.20000E-001	9.40224E-004	7	...........	-327.66
	895	0.1792	2.10062E-001	-5.46059E-006	0.00000E+000	2.10000E-001	1.11522E-003	7	...........	-327.66
	896	0.1794	2.00012E-001	-5.92565E-006	0.00000E+000	2.00000E-001	1.16522E-003	7	...........	-327.66
	897	0.1796	1.90150E-001	-6.39197E-006	0.00000E+000	1.90000E-001	1.19022E-003	7	...........	-327.66
	898	0.1798	1.79962E-001	-6.84953E-006	0.00000E+000	1.80000E-001	9.90224E-004	7	...........	-327.66
	899	0.18	1.70237E-001	-7.30134E-006	0.00000E+000	1.70000E-001	1.09022E-003	7	...........	-327.66
	900	0.1802	1.60125E-001	-7.74590E-006	0.00000E+000	1.60000E-001	9.90224E-004	7	...........	-327.66