File: Test_Data_Files/20250509_ZI_IF0011_IIA42_E08_PBSair_PEDOT_CV50000.DTA
EXPLAIN
TAG	CV
TITLE	LABEL	CV50000	Test Identifier
DATE	LABEL	5/9/2025	Date
TIME	LABEL	15:36:36	Time
NOTES	NOTES	1	Notes...

PSTAT	PSTAT	REF600P-43058	Potentiostat
VINIT	POTEN	0.00000E+000	T	Initial E (V)
VLIMIT1	POTEN	-9.00000E-001	F	Scan Limit 1 (V)
VLIMIT2	POTEN	6.00000E-001	F	Scan Limit 2 (V)
VFINAL	POTEN	0.00000E+000	T	Final E (V)
SCANRATE	QUANT	4.99999E+004	Scan Rate (mV/s)
STEPSIZE	QUANT	1.00000E+001	Step Size (mV)
CYCLES	IQUANT	3	Cycles (#)
IMODE	SELECTOR	1	I/E Range Mode
IRANGE	QUANT	1.00000E-002	Max Current (mA)
AREA	QUANT	1.00000E+000	Sample Area (cm^2)
EQDELAY	QUANT	5.00000E+000	Equil. Time (s)
IRCOMP	SELECTOR	0	IRComp
PFCOR	QUANT	5.00000E+001	PF Corr. (ohm)
SAMPLINGMODE	SELECTOR	2	Sampling Mode
EOC	QUANT	0.1530634	Open Circuit (V)
ELECTRODETYPE	SELECTOR	0	Electrode Type
STRIPPING	TOGGLE	F	Used for Stripping
SEQUENCER	TOGGLE	TRUE	Run as Sequence
PSTATMODEL	IQUANT	7	Pstat Model
PSTATSECTION	LABEL	REF600P-43058	Pstat Section
PSTATSERIALNO	LABEL	43058	Pstat Serial Number
CTRLMODE	IQUANT	1	Control Mode
ELECTROMETER	IQUANT	0	RE=0 or CS=1
IESTAB	IQUANT	2	I/E Stability
CASPEED	IQUANT	4	Control Amp Speed
CONVENTION	IQUANT	1	Current Convention
ICHRANGE	IQUANT	2	Ich Range
ICHRANGEMODE	TOGGLE	F	Ich Auto Range
ICHOFFSETENABLE	TOGGLE	F	Ich Offset Enable
ICHOFFSET	QUANT	0	Ich Offset (V)
ICHFILTER	IQUANT	1	Ich Filter
VCHRANGE	IQUANT	2	Vch Range
VCHRANGEMODE	TOGGLE	F	Vch Auto Range
VCHOFFSETENABLE	TOGGLE	F	Vch Offset Enable
VCHOFFSET	QUANT	0	Vch Offset (V)
VCHFILTER	IQUANT	1	Vch Filter
ACHRANGE	IQUANT	2	Ach Range
ACHOFFSETENABLE	TOGGLE	F	Ach Offset Enable
ACHOFFSET	QUANT	0	Ach Offset (V)
ACHFILTER	IQUANT	1	Ach Filter
IERANGELOWERLIMIT	IQUANT	1	I/E Range Lower Limit
IERANGEMODE	TOGGLE	F	I/E AutoRange
IERANGE	IQUANT	7	I/E Range
POSFEEDENABLE	TOGGLE	F	Positive Feedback IR Comp
POSFEEDRESISTANCE	QUANT	0	Positive Feedback Resistance (ohm)
ACHSELECT	IQUANT	4	Ach Select
SENSECABLEID	IQUANT	7	Sense Cable ID
PWRCABLEID	IQUANT	7	Power Cable ID
DCCALDATE	LABEL	5/8/2025	DC Calibration Date
ACCALDATE	LABEL	5/8/2025	AC Calibration Date
THERMOSELECT	IQUANT	1	Thermo Select
FRAMEWORKVERSION	LABEL	7.10.4	Framework Version
INSTRUMENTVERSION	LABEL	5.01	Instrument Version
COMMVERSION	LABEL	5.10	Communications Version
CPUPLDVERSION	LABEL	6.00	CPU PLD Version
CTRLPLDVERSION	LABEL	3.21	CTRL PLD Version
PSTATPLDVERSION	LABEL	0.00	PSTAT PLD Version
CURVE1	TABLE
	Pt	T	Vf	Im	Vu	Sig	Ach	IERange	Over	Temp
	#	s	V vs. Ref.	A	V	V	V	#	bits	deg C
	0	0.0002	1.53137E-001	1.04053E-008	0.00000E+000	1.53050E-001	1.29022E-003	7	...........	-327.66
	3	0.0008	1.23112E-001	-3.28629E-006	0.00000E+000	1.23050E-001	1.04022E-003	7	...........	-327.66
	6	0.0014	9.31248E-002	-5.48434E-006	0.00000E+000	9.30500E-002	1.16522E-003	7	...........	-327.66
	9	0.002	6.32623E-002	-7.18833E-006	0.00000E+000	6.30500E-002	1.19022E-003	7	...........	-327.66
	12	0.0026	3.32123E-002	-8.64952E-006	0.00000E+000	3.30500E-002	1.01522E-003	7	...........	-327.66
	15	0.0032	3.16231E-003	-9.95020E-006	0.00000E+000	3.04998E-003	1.04022E-003	7	...........	-327.66
	18	0.0038	-2.67627E-002	-1.11509E-005	0.00000E+000	-2.69500E-002	1.11522E-003	7	...........	-327.66
	21	0.0044	-5.68627E-002	-1.22903E-005	0.00000E+000	-5.69500E-002	1.11522E-003	7	...........	-327.66
	24	0.005	-8.67127E-002	-1.33814E-005	0.00000E+000	-8.69500E-002	1.19022E-003	7	...........	-327.66
	27	0.0056	-1.16813E-001	-1.44378E-005	0.00000E+000	-1.16950E-001	1.29022E-003	7	...........	-327.66
	30	0.0062	-1.46775E-001	-1.54762E-005	0.00000E+000	-1.46950E-001	9.40224E-004	7	...........	-327.66
	33	0.0068	-1.76863E-001	-1.64911E-005	0.00000E+000	-1.76950E-001	1.16522E-003	7	...........	-327.66
	36	0.0074	-2.06688E-001	-1.75025E-005	0.00000E+000	-2.06950E-001	1.14022E-003	7	...........	-327.66
	39	0.008	-2.36775E-001	-1.85041E-005	0.00000E+000	-2.36950E-001	1.19022E-003	7	...........	-327.66
	42	0.0086	-2.66600E-001	-1.94988E-005	0.00000E+000	-2.66950E-001	1.11522E-003	7	...........	-327.66
	45	0.0092	-2.96763E-001	-2.04951E-005	0.00000E+000	-2.96950E-001	1.21522E-003	7	...........	-327.66
	48	0.0098	-3.26775E-001	-2.14818E-005	0.00000E+000	-3.26950E-001	1.19022E-003	7	...........	-327.66
	51	0.0104	-3.56813E-001	-2.24684E-005	0.00000E+000	-3.56950E-001	1.01522E-003	7	...........	-327.66
	54	0.011	-3.86713E-001	-2.34465E-005	0.00000E+000	-3.86950E-001	1.09022E-003	7	...........	-327.66
	57	0.0116	-4.16763E-001	-2.44242E-005	0.00000E+000	-4.16950E-001	1.09022E-003	7	...........	-327.66
	60	0.0122	-4.46563E-001	-2.53878E-005	0.00000E+000	-4.46950E-001	1.21522E-003	7	...........	-327.66
	63	0.0128	-4.76775E-001	-2.63459E-005	0.00000E+000	-4.76950E-001	1.06522E-003	7	...........	-327.66
	66	0.0134	-5.06663E-001	-2.72906E-005	0.00000E+000	-5.06950E-001	1.14022E-003	7	...........	-327.66
	69	0.014	-5.36763E-001	-2.82209E-005	0.00000E+000	-5.36950E-001	1.06522E-003	7	...........	-327.66
	72	0.0146	-5.66613E-001	-2.91263E-005	0.00000E+000	-5.66950E-001	1.11522E-003	7	...........	-327.66
	75	0.0152	-5.96738E-001	-3.00107E-005	0.00000E+000	-5.96950E-001	1.09022E-003	7	...........	-327.66
	78	0.0158	-6.26663E-001	-3.08601E-005	0.00000E+000	-6.26950E-001	1.06522E-003	7	...........	-327.66
	81	0.0164	-6.56638E-001	-3.16794E-005	0.00000E+000	-6.56950E-001	1.11522E-003	7	...........	-327.66
	84	0.017	-6.86663E-001	-3.24395E-005	0.00000E+000	-6.86950E-001	1.16522E-003	7	...........	-327.66
	87	0.0176	-7.16738E-001	-3.31466E-005	0.00000E+000	-7.16950E-001	1.11522E-003	7	...........	-327.66
	90	0.0182	-7.46475E-001	-3.37822E-005	0.00000E+000	-7.46950E-001	1.19022E-003	7	...........	-327.66
	93	0.0188	-7.76663E-001	-3.43245E-005	0.00000E+000	-7.76950E-001	1.09022E-003	7	...........	-327.66
	96	0.0194	-8.06488E-001	-3.47558E-005	0.00000E+000	-8.06950E-001	1.06522E-003	7	...........	-327.66
	99	0.02	-8.36600E-001	-3.50359E-005	0.00000E+000	-8.36950E-001	1.21522E-003	7	...........	-327.66
	102	0.0206	-8.66625E-001	-3.51519E-005	0.00000E+000	-8.66950E-001	1.16522E-003	7	...........	-327.66
	105	0.0212	-8.96600E-001	-3.50646E-005	0.00000E+000	-8.96950E-001	1.01522E-003	7	...........	-327.66
	108	0.0218	-8.66725E-001	-2.92038E-005	0.00000E+000	-8.66950E-001	1.11522E-003	7	...........	-327.66
	111	0.0224	-8.36650E-001	-2.50030E-005	0.00000E+000	-8.36950E-001	1.09022E-003	7	...........	-327.66
	114	0.023	-8.06650E-001	-2.14823E-005	0.00000E+000	-8.06950E-001	1.26522E-003	7	...........	-327.66
	117	0.0236	-7.76750E-001	-1.82983E-005	0.00000E+000	-7.76950E-001	1.06522E-003	7	...........	-327.66
	120	0.0242	-7.46750E-001	-1.53199E-005	0.00000E+000	-7.46950E-001	1.01522E-003	7	...........	-327.66
	123	0.0248	-7.16813E-001	-1.24895E-005	0.00000E+000	-7.16950E-001	1.16522E-003	7	...........	-327.66
	126	0.0254	-6.86813E-001	-9.77793E-006	0.00000E+000	-6.86950E-001	1.09022E-003	7	...........	-327.66
	129	0.026	-6.56775E-001	-7.17757E-006	0.00000E+000	-6.56950E-001	1.11522E-003	7	...........	-327.66
	132	0.0266	-6.26775E-001	-4.68873E-006	0.00000E+000	-6.26950E-001	1.19022E-003	7	...........	-327.66
	135	0.0272	-5.96838E-001	-2.30991E-006	0.00000E+000	-5.96950E-001	1.11522E-003	7	...........	-327.66
	138	0.0278	-5.66813E-001	-2.50995E-008	0.00000E+000	-5.66950E-001	1.19022E-003	7	...........	-327.66
	141	0.0284	-5.36800E-001	2.15295E-006	0.00000E+000	-5.36950E-001	1.19022E-003	7	...........	-327.66
	144	0.029	-5.06863E-001	4.23923E-006	0.00000E+000	-5.06950E-001	1.21522E-003	7	...........	-327.66
	147	0.0296	-4.76925E-001	6.22600E-006	0.00000E+000	-4.76950E-001	1.09022E-003	7	...........	-327.66
	150	0.0302	-4.46738E-001	8.13451E-006	0.00000E+000	-4.46950E-001	1.24022E-003	7	...........	-327.66
	153	0.0308	-4.16863E-001	9.95601E-006	0.00000E+000	-4.16950E-001	1.24022E-003	7	...........	-327.66
	156	0.0314	-3.86813E-001	1.16960E-005	0.00000E+000	-3.86950E-001	1.24022E-003	7	...........	-327.66
	159	0.032	-3.56925E-001	1.33495E-005	0.00000E+000	-3.56950E-001	1.01522E-003	7	...........	-327.66
	162	0.0326	-3.26913E-001	1.49164E-005	0.00000E+000	-3.26950E-001	1.09022E-003	7	...........	-327.66
	165	0.0332	-2.96863E-001	1.64016E-005	0.00000E+000	-2.96950E-001	1.01522E-003	7	...........	-327.66
	168	0.0338	-2.67013E-001	1.77933E-005	0.00000E+000	-2.66950E-001	1.19022E-003	7	...........	-327.66
	171	0.0344	-2.36900E-001	1.90930E-005	0.00000E+000	-2.36950E-001	1.11522E-003	7	...........	-327.66
	174	0.035	-2.06875E-001	2.02994E-005	0.00000E+000	-2.06950E-001	9.65224E-004	7	...........	-327.66
	177	0.0356	-1.76925E-001	2.14201E-005	0.00000E+000	-1.76950E-001	1.19022E-003	7	...........	-327.66
	180	0.0362	-1.46975E-001	2.24422E-005	0.00000E+000	-1.46950E-001	1.16522E-003	7	...........	-327.66
	183	0.0368	-1.16938E-001	2.33831E-005	0.00000E+000	-1.16950E-001	1.11522E-003	7	...........	-327.66
	186	0.0374	-8.67752E-002	2.42437E-005	0.00000E+000	-8.69500E-002	1.14022E-003	7	...........	-327.66
	189	0.038	-5.68627E-002	2.50273E-005	0.00000E+000	-5.69500E-002	1.14022E-003	7	...........	-327.66
	192	0.0386	-2.69127E-002	2.57397E-005	0.00000E+000	-2.69500E-002	1.14022E-003	7	...........	-327.66
	195	0.0392	3.13731E-003	2.63847E-005	0.00000E+000	3.04998E-003	1.19022E-003	7	...........	-327.66
	198	0.0398	3.31123E-002	2.69618E-005	0.00000E+000	3.30500E-002	1.29022E-003	7	...........	-327.66
	201	0.0404	6.30748E-002	2.74726E-005	0.00000E+000	6.30500E-002	1.21522E-003	7	...........	-327.66
	204	0.041	9.30998E-002	2.79155E-005	0.00000E+000	9.30500E-002	1.11522E-003	7	...........	-327.66
	207	0.0416	1.23112E-001	2.82820E-005	0.00000E+000	1.23050E-001	1.04022E-003	7	...........	-327.66
	210	0.0422	1.53087E-001	2.85738E-005	0.00000E+000	1.53050E-001	1.09022E-003	7	...........	-327.66
	213	0.0428	1.83062E-001	2.87833E-005	0.00000E+000	1.83050E-001	1.24022E-003	7	...........	-327.66
	216	0.0434	2.13037E-001	2.89111E-005	0.00000E+000	2.13050E-001	1.24022E-003	7	...........	-327.66
	219	0.044	2.43112E-001	2.89711E-005	0.00000E+000	2.43050E-001	1.24022E-003	7	...........	-327.66
	222	0.0446	2.73037E-001	2.89739E-005	0.00000E+000	2.73050E-001	1.14022E-003	7	...........	-327.66
	225	0.0452	3.03037E-001	2.89331E-005	0.00000E+000	3.03050E-001	1.21522E-003	7	...........	-327.66
	228	0.0458	3.33050E-001	2.88603E-005	0.00000E+000	3.33050E-001	1.19022E-003	7	...........	-327.66
	231	0.0464	3.62987E-001	2.87663E-005	0.00000E+000	3.63050E-001	1.06522E-003	7	...........	-327.66
	234	0.047	3.93012E-001	2.86591E-005	0.00000E+000	3.93050E-001	1.21522E-003	7	...........	-327.66
	237	0.0476	4.23087E-001	2.85425E-005	0.00000E+000	4.23050E-001	1.11522E-003	7	...........	-327.66
	240	0.0482	4.52987E-001	2.84233E-005	0.00000E+000	4.53050E-001	1.06522E-003	7	...........	-327.66
	243	0.0488	4.82962E-001	2.83205E-005	0.00000E+000	4.83050E-001	1.11522E-003	7	...........	-327.66
	246	0.0494	5.12925E-001	2.82225E-005	0.00000E+000	5.13050E-001	1.19022E-003	7	...........	-327.66
	249	0.05	5.43062E-001	2.81515E-005	0.00000E+000	5.43050E-001	1.24022E-003	7	...........	-327.66
	252	0.0506	5.73025E-001	2.81077E-005	0.00000E+000	5.73050E-001	1.11522E-003	7	...........	-327.66
	255	0.0512	6.03037E-001	2.80880E-005	0.00000E+000	6.03050E-001	8.90224E-004	7	...........	-327.66
CURVE2	TABLE
	Pt	T	Vf	Im	Vu	Sig	Ach	IERange	Over	Temp
	#	s	V vs. Ref.	A	V	V	V	#	bits	deg C
	256	0.0514	5.89962E-001	2.52511E-005	0.00000E+000	5.90000E-001	1.14022E-003	7	...........	-327.66
	260	0.0522	5.50025E-001	1.81924E-005	0.00000E+000	5.50000E-001	1.21522E-003	7	...........	-327.66
	264	0.053	5.09937E-001	1.36168E-005	0.00000E+000	5.10000E-001	1.14022E-003	7	...........	-327.66
	268	0.0538	4.69987E-001	1.00165E-005	0.00000E+000	4.70000E-001	1.06522E-003	7	...........	-327.66
	272	0.0546	4.29987E-001	6.97936E-006	0.00000E+000	4.30000E-001	1.09022E-003	7	...........	-327.66
	276	0.0554	3.90037E-001	4.31449E-006	0.00000E+000	3.90000E-001	1.14022E-003	7	...........	-327.66
	280	0.0562	3.50025E-001	1.92467E-006	0.00000E+000	3.50000E-001	1.09022E-003	7	...........	-327.66
	284	0.057	3.10137E-001	-2.55381E-007	0.00000E+000	3.10000E-001	1.01522E-003	7	...........	-327.66
	288	0.0578	2.70225E-001	-2.26515E-006	0.00000E+000	2.70000E-001	9.90224E-004	7	...........	-327.66
	292	0.0586	2.30037E-001	-4.14016E-006	0.00000E+000	2.30000E-001	1.11522E-003	7	...........	-327.66
	296	0.0594	1.90225E-001	-5.89965E-006	0.00000E+000	1.90000E-001	1.21522E-003	7	...........	-327.66
	300	0.0602	1.50262E-001	-7.57363E-006	0.00000E+000	1.50000E-001	1.09022E-003	7	...........	-327.66
	304	0.061	1.10187E-001	-9.17085E-006	0.00000E+000	1.10000E-001	9.90224E-004	7	...........	-327.66
	308	0.0618	7.01873E-002	-1.06953E-005	0.00000E+000	7.00000E-002	1.09022E-003	7	...........	-327.66
	312	0.0626	3.01873E-002	-1.21643E-005	0.00000E+000	3.00000E-002	1.16522E-003	7	...........	-327.66
	316	0.0634	-9.66269E-003	-1.35929E-005	0.00000E+000	-1.00000E-002	1.01522E-003	7	...........	-327.66
	320	0.0642	-4.98627E-002	-1.49686E-005	0.00000E+000	-5.00000E-002	1.06522E-003	7	...........	-327.66
	324	0.065	-8.97877E-002	-1.63081E-005	0.00000E+000	-9.00000E-002	1.11522E-003	7	...........	-327.66
	328	0.0658	-1.29875E-001	-1.76125E-005	0.00000E+000	-1.30000E-001	1.06522E-003	7	...........	-327.66
	332	0.0666	-1.69838E-001	-1.88899E-005	0.00000E+000	-1.70000E-001	1.01522E-003	7	...........	-327.66
	336	0.0674	-2.09688E-001	-2.01481E-005	0.00000E+000	-2.10000E-001	1.14022E-003	7	...........	-327.66
	340	0.0682	-2.49850E-001	-2.13993E-005	0.00000E+000	-2.50000E-001	1.14022E-003	7	...........	-327.66
	344	0.069	-2.89838E-001	-2.26362E-005	0.00000E+000	-2.90000E-001	1.09022E-003	7	...........	-327.66
	348	0.0698	-3.29738E-001	-2.38581E-005	0.00000E+000	-3.30000E-001	1.04022E-003	7	...........	-327.66
	352	0.0706	-3.69650E-001	-2.50665E-005	0.00000E+000	-3.70000E-001	1.14022E-003	7	...........	-327.66
	356	0.0714	-4.09813E-001	-2.62597E-005	0.00000E+000	-4.10000E-001	1.06522E-003	7	...........	-327.66
	360	0.0722	-4.49713E-001	-2.74243E-005	0.00000E+000	-4.50000E-001	1.21522E-003	7	...........	-327.66
	364	0.073	-4.89763E-001	-2.85570E-005	0.00000E+000	-4.90000E-001	1.09022E-003	7	...........	-327.66
	368	0.0738	-5.29713E-001	-2.96554E-005	0.00000E+000	-5.30000E-001	9.65224E-004	7	...........	-327.66
	372	0.0746	-5.69688E-001	-3.07043E-005	0.00000E+000	-5.70000E-001	1.11522E-003	7	...........	-327.66
	376	0.0754	-6.09713E-001	-3.17009E-005	0.00000E+000	-6.10000E-001	1.14022E-003	7	...........	-327.66
	380	0.0762	-6.49738E-001	-3.26205E-005	0.00000E+000	-6.50000E-001	1.09022E-003	7	...........	-327.66
	384	0.077	-6.89700E-001	-3.34579E-005	0.00000E+000	-6.90000E-001	1.09022E-003	7	...........	-327.66
	388	0.0778	-7.29663E-001	-3.41910E-005	0.00000E+000	-7.30000E-001	1.16522E-003	7	...........	-327.66
	392	0.0786	-7.69663E-001	-3.47938E-005	0.00000E+000	-7.70000E-001	1.11522E-003	7	...........	-327.66
	396	0.0794	-8.09638E-001	-3.52421E-005	0.00000E+000	-8.10000E-001	1.16522E-003	7	...........	-327.66
	400	0.0802	-8.49713E-001	-3.54867E-005	0.00000E+000	-8.50000E-001	1.14022E-003	7	...........	-327.66
	404	0.081	-8.89613E-001	-3.54832E-005	0.00000E+000	-8.90000E-001	1.14022E-003	7	...........	-327.66
	408	0.0818	-8.69650E-001	-2.92458E-005	0.00000E+000	-8.70000E-001	1.14022E-003	7	...........	-327.66
	412	0.0826	-8.29650E-001	-2.32638E-005	0.00000E+000	-8.30000E-001	1.29022E-003	7	...........	-327.66
	416	0.0834	-7.89650E-001	-1.83476E-005	0.00000E+000	-7.90000E-001	1.16522E-003	7	...........	-327.66
	420	0.0842	-7.49725E-001	-1.39700E-005	0.00000E+000	-7.50000E-001	1.11522E-003	7	...........	-327.66
	424	0.085	-7.09713E-001	-9.96945E-006	0.00000E+000	-7.10000E-001	1.14022E-003	7	...........	-327.66
	428	0.0858	-6.69713E-001	-6.29295E-006	0.00000E+000	-6.70000E-001	1.11522E-003	7	...........	-327.66
	432	0.0866	-6.29738E-001	-2.90374E-006	0.00000E+000	-6.30000E-001	1.04022E-003	7	...........	-327.66
	436	0.0874	-5.89888E-001	2.26935E-007	0.00000E+000	-5.90000E-001	1.24022E-003	7	...........	-327.66
	440	0.0882	-5.49713E-001	3.14308E-006	0.00000E+000	-5.50000E-001	1.06522E-003	7	...........	-327.66
	444	0.089	-5.09900E-001	5.88596E-006	0.00000E+000	-5.10000E-001	1.11522E-003	7	...........	-327.66
	448	0.0898	-4.69888E-001	8.48331E-006	0.00000E+000	-4.70000E-001	1.11522E-003	7	...........	-327.66
	452	0.0906	-4.29888E-001	1.09476E-005	0.00000E+000	-4.30000E-001	1.14022E-003	7	...........	-327.66
	456	0.0914	-3.89863E-001	1.32910E-005	0.00000E+000	-3.90000E-001	1.19022E-003	7	...........	-327.66
	460	0.0922	-3.50000E-001	1.55008E-005	0.00000E+000	-3.50000E-001	1.16522E-003	7	...........	-327.66
	464	0.093	-3.10000E-001	1.75623E-005	0.00000E+000	-3.10000E-001	1.11522E-003	7	...........	-327.66
	468	0.0938	-2.69975E-001	1.94568E-005	0.00000E+000	-2.70000E-001	1.04022E-003	7	...........	-327.66
	472	0.0946	-2.29988E-001	2.11830E-005	0.00000E+000	-2.30000E-001	1.24022E-003	7	...........	-327.66
	476	0.0954	-1.89925E-001	2.27210E-005	0.00000E+000	-1.90000E-001	1.01522E-003	7	...........	-327.66
	480	0.0962	-1.49963E-001	2.40822E-005	0.00000E+000	-1.50000E-001	1.09022E-003	7	...........	-327.66
	484	0.097	-1.10000E-001	2.52888E-005	0.00000E+000	-1.10000E-001	1.14022E-003	7	...........	-327.66
	488	0.0978	-7.00127E-002	2.63502E-005	0.00000E+000	-7.00000E-002	1.11522E-003	7	...........	-327.66
	492	0.0986	-2.99002E-002	2.72911E-005	0.00000E+000	-3.00000E-002	1.09022E-003	7	...........	-327.66
	496	0.0994	1.00248E-002	2.81247E-005	0.00000E+000	9.99999E-003	1.21522E-003	7	...........	-327.66
[...]
	696	0.1394	-8.09613E-001	-3.55782E-005	0.00000E+000	-8.10000E-001	1.14022E-003	7	...........	-327.66
	700	0.1402	-8.49688E-001	-3.57895E-005	0.00000E+000	-8.50000E-001	1.29022E-003	7	...........	-327.66
	704	0.141	-8.89638E-001	-3.57600E-005	0.00000E+000	-8.90000E-001	1.16522E-003	7	...........	-327.66
	708	0.1418	-8.69688E-001	-2.93834E-005	0.00000E+000	-8.70000E-001	1.11522E-003	7	...........	-327.66
	712	0.1426	-8.29650E-001	-2.31808E-005	0.00000E+000	-8.30000E-001	1.19022E-003	7	...........	-327.66
	716	0.1434	-7.89688E-001	-1.80858E-005	0.00000E+000	-7.90000E-001	1.19022E-003	7	...........	-327.66
	720	0.1442	-7.49713E-001	-1.35797E-005	0.00000E+000	-7.50000E-001	1.14022E-003	7	...........	-327.66
	724	0.145	-7.09725E-001	-9.49989E-006	0.00000E+000	-7.10000E-001	1.16522E-003	7	...........	-327.66
	728	0.1458	-6.69700E-001	-5.78989E-006	0.00000E+000	-6.70000E-001	1.16522E-003	7	...........	-327.66
	732	0.1466	-6.29750E-001	-2.40217E-006	0.00000E+000	-6.30000E-001	1.21522E-003	7	...........	-327.66
	736	0.1474	-5.89813E-001	7.06250E-007	0.00000E+000	-5.90000E-001	1.24022E-003	7	...........	-327.66
	740	0.1482	-5.49688E-001	3.59814E-006	0.00000E+000	-5.50000E-001	1.11522E-003	7	...........	-327.66
	744	0.149	-5.09813E-001	6.32202E-006	0.00000E+000	-5.10000E-001	1.11522E-003	7	...........	-327.66
	748	0.1498	-4.69850E-001	8.91337E-006	0.00000E+000	-4.70000E-001	1.04022E-003	7	...........	-327.66
	752	0.1506	-4.29850E-001	1.13915E-005	0.00000E+000	-4.30000E-001	1.21522E-003	7	...........	-327.66
	756	0.1514	-3.89925E-001	1.37558E-005	0.00000E+000	-3.90000E-001	1.14022E-003	7	...........	-327.66
	760	0.1522	-3.49900E-001	1.59921E-005	0.00000E+000	-3.50000E-001	1.06522E-003	7	...........	-327.66
	764	0.153	-3.09875E-001	1.80824E-005	0.00000E+000	-3.10000E-001	1.19022E-003	7	...........	-327.66
	768	0.1538	-2.69950E-001	1.99956E-005	0.00000E+000	-2.70000E-001	1.01522E-003	7	...........	-327.66
	772	0.1546	-2.29925E-001	2.17346E-005	0.00000E+000	-2.30000E-001	1.16522E-003	7	...........	-327.66
	776	0.1554	-1.89913E-001	2.32806E-005	0.00000E+000	-1.90000E-001	1.09022E-003	7	...........	-327.66
	780	0.1562	-1.50038E-001	2.46443E-005	0.00000E+000	-1.50000E-001	1.14022E-003	7	...........	-327.66
	784	0.157	-1.10075E-001	2.58407E-005	0.00000E+000	-1.10000E-001	1.09022E-003	7	...........	-327.66
	788	0.1578	-6.99877E-002	2.68983E-005	0.00000E+000	-7.00000E-002	1.09022E-003	7	...........	-327.66
	792	0.1586	-2.99502E-002	2.78462E-005	0.00000E+000	-3.00000E-002	1.16522E-003	7	...........	-327.66
	796	0.1594	1.00123E-002	2.87003E-005	0.00000E+000	9.99999E-003	1.06522E-003	7	...........	-327.66
	800	0.1602	4.99373E-002	2.94052E-005	0.00000E+000	5.00000E-002	1.19022E-003	7	...........	-327.66
	804	0.161	9.01123E-002	2.99455E-005	0.00000E+000	9.00000E-002	1.01522E-003	7	...........	-327.66
	808	0.1618	1.29950E-001	3.03228E-005	0.00000E+000	1.30000E-001	1.24022E-003	7	...........	-327.66
	812	0.1626	1.70025E-001	3.05423E-005	0.00000E+000	1.70000E-001	1.14022E-003	7	...........	-327.66
	816	0.1634	2.09937E-001	3.06353E-005	0.00000E+000	2.10000E-001	1.21522E-003	7	...........	-327.66
	820	0.1642	2.49925E-001	3.06353E-005	0.00000E+000	2.50000E-001	1.14022E-003	7	...........	-327.66
	824	0.165	2.89962E-001	3.05761E-005	0.00000E+000	2.90000E-001	1.24022E-003	7	...........	-327.66
	828	0.1658	3.29925E-001	3.04723E-005	0.00000E+000	3.30000E-001	1.14022E-003	7	...........	-327.66
	832	0.1666	3.70000E-001	3.03490E-005	0.00000E+000	3.70000E-001	1.11522E-003	7	...........	-327.66
	836	0.1674	4.09937E-001	3.02158E-005	0.00000E+000	4.10000E-001	1.09022E-003	7	...........	-327.66
	840	0.1682	4.50100E-001	3.00838E-005	0.00000E+000	4.50000E-001	1.11522E-003	7	...........	-327.66
	844	0.169	4.89887E-001	2.99697E-005	0.00000E+000	4.90000E-001	1.11522E-003	7	...........	-327.66
	848	0.1698	5.29962E-001	2.98887E-005	0.00000E+000	5.30000E-001	1.24022E-003	7	...........	-327.66
	852	0.1706	5.69950E-001	2.98527E-005	0.00000E+000	5.70000E-001	1.04022E-003	7	...........	-327.66
	855	0.1712	5.99962E-001	2.98600E-005	0.00000E+000	6.00000E-001	1.29022E-003	7	...........	-327.66
CURVE4	TABLE
	Pt	T	Vf	Im	Vu	Sig	Ach	IERange	Over	Temp
	#	s	V vs. Ref.	A	V	V	V	#	bits	deg C
	856	0.1714	5.89962E-001	2.73534E-005	0.00000E+000	5.90000E-001	1.04022E-003	7	...........	-327.66
	857	0.1716	5.79962E-001	2.50026E-005	0.00000E+000	5.80000E-001	1.14022E-003	7	...........	-327.66
	858	0.1718	5.70025E-001	2.30443E-005	0.00000E+000	5.70000E-001	1.11522E-003	7	...........	-327.66
	859	0.172	5.59912E-001	2.13468E-005	0.00000E+000	5.60000E-001	1.14022E-003	7	...........	-327.66
	860	0.1722	5.49975E-001	1.98226E-005	0.00000E+000	5.50000E-001	1.16522E-003	7	...........	-327.66
	861	0.1724	5.39937E-001	1.84444E-005	0.00000E+000	5.40000E-001	1.29022E-003	7	...........	-327.66
	862	0.1726	5.29987E-001	1.71697E-005	0.00000E+000	5.30000E-001	1.04022E-003	7	...........	-327.66
	863	0.1728	5.19975E-001	1.59756E-005	0.00000E+000	5.20000E-001	1.19022E-003	7	...........	-327.66
	864	0.173	5.09937E-001	1.48569E-005	0.00000E+000	5.10000E-001	1.09022E-003	7	...........	-327.66
	865	0.1732	4.99987E-001	1.37983E-005	0.00000E+000	5.00000E-001	1.29022E-003	7	...........	-327.66
	866	0.1734	4.89925E-001	1.27946E-005	0.00000E+000	4.90000E-001	1.01522E-003	7	...........	-327.66
	867	0.1736	4.79937E-001	1.18285E-005	0.00000E+000	4.80000E-001	9.40224E-004	7	...........	-327.66
	868	0.1738	4.69975E-001	1.09051E-005	0.00000E+000	4.70000E-001	1.11522E-003	7	...........	-327.66
	869	0.174	4.59962E-001	1.00225E-005	0.00000E+000	4.60000E-001	1.09022E-003	7	...........	-327.66
	870	0.1742	4.50012E-001	9.17215E-006	0.00000E+000	4.50000E-001	1.04022E-003	7	...........	-327.66
	871	0.1744	4.39937E-001	8.34704E-006	0.00000E+000	4.40000E-001	9.65224E-004	7	...........	-327.66
	872	0.1746	4.30012E-001	7.54843E-006	0.00000E+000	4.30000E-001	1.19022E-003	7	...........	-327.66
	873	0.1748	4.20050E-001	6.78008E-006	0.00000E+000	4.20000E-001	1.16522E-003	7	...........	-327.66
	874	0.175	4.10037E-001	6.02948E-006	0.00000E+000	4.10000E-001	1.04022E-003	7	...........	-327.66
	875	0.1752	3.99937E-001	5.30413E-006	0.00000E+000	4.00000E-001	1.06522E-003	7	...........	-327.66
	876	0.1754	3.90012E-001	4.60128E-006	0.00000E+000	3.90000E-001	1.09022E-003	7	...........	-327.66
	877	0.1756	3.79962E-001	3.91069E-006	0.00000E+000	3.80000E-001	1.21522E-003	7	...........	-327.66
	878	0.1758	3.70112E-001	3.24360E-006	0.00000E+000	3.70000E-001	1.11522E-003	7	...........	-327.66
	879	0.176	3.60062E-001	2.58776E-006	0.00000E+000	3.60000E-001	1.04022E-003	7	...........	-327.66
	880	0.1762	3.50187E-001	1.95342E-006	0.00000E+000	3.50000E-001	9.90224E-004	7	...........	-327.66
	881	0.1764	3.39962E-001	1.33384E-006	0.00000E+000	3.40000E-001	1.11522E-003	7	...........	-327.66
	882	0.1766	3.30200E-001	7.31254E-007	0.00000E+000	3.30000E-001	1.14022E-003	7	...........	-327.66
	883	0.1768	3.20087E-001	1.32672E-007	0.00000E+000	3.20000E-001	1.16522E-003	7	...........	-327.66
	884	0.177	3.10075E-001	-4.52158E-007	0.00000E+000	3.10000E-001	1.21522E-003	7	...........	-327.66
	885	0.1772	3.00012E-001	-1.02099E-006	0.00000E+000	3.00000E-001	1.21522E-003	7	...........	-327.66
	886	0.1774	2.90062E-001	-1.57581E-006	0.00000E+000	2.90000E-001	9.90224E-004	7	...........	-327.66
	887	0.1776	2.79987E-001	-2.12339E-006	0.00000E+000	2.80000E-001	1.16522E-003	7	...........	-327.66
	888	0.1778	2.70300E-001	-2.65946E-006	0.00000E+000	2.70000E-001	1.21522E-003	7	...........	-327.66
	889	0.178	2.59987E-001	-3.18478E-006	0.00000E+000	2.60000E-001	1.14022E-003	7	...........	-327.66
	890	0.1782	2.50100E-001	-3.70035E-006	0.00000E+000	2.50000E-001	1.19022E-003	7	...........	-327.66
	891	0.1784	2.40125E-001	-4.21117E-006	0.00000E+000	2.40000E-001	1.16522E-003	7	...........	-327.66
	892	0.1786	2.30112E-001	-4.70924E-006	0.00000E+000	2.30000E-001	1.24022E-003	7	...........	-327.66
	893	0.1788	2.20037E-001	-5.20155E-006	0.00000E+000	2.20000E-001	1.16522E-003	7	...........	-327.66
	894	0.179	2.10125E-001	-5.68712E-006	0.00000E+000	2.10000E-001	1.16522E-003	7	...........	-327.66
	895	0.1792	2.00050E-001	-6.15869E-006	0.00000E+000	2.00000E-001	1.04022E-003	7	...........	-327.66
	896	0.1794	1.90175E-001	-6.63325E-006	0.00000E+000	1.90000E-001	1.19022E-003	7	...........	-327.66
	897	0.1796	1.80025E-001	-7.09406E-006	0.00000E+000	1.80000E-001	1.11522E-003	7	...........	-327.66
	898	0.1798	1.70250E-001	-7.54737E-006	0.00000E+000	1.70000E-001	1.09022E-003	7	...........	-327.66
	899	0.18	1.60125E-001	-7.99619E-006	0.00000E+000	1.60000E-001	1.16522E-003	7	...........	-327.66
	900	0.1802	1.50262E-001	-8.43825E-006	0.00000E+000	1.50000E-001	1.01522E-003	7	...........	-327.66