File: Test_Data_Files/20250424_L_CHI105_12,5umAu_E000_PBSarg_CV500.DTA
EXPLAIN
TAG	CV
TITLE	LABEL	Cyclic Voltammetry	Test &Identifier
DATE	LABEL	4/24/2025	Date
TIME	LABEL	13:28:02	Time
NOTES	NOTES	3	&Notes...

PSTAT	PSTAT	IFC1010-32247	Potentiostat
VINIT	POTEN	0.00000E+000	T	Initial &E (V)
VLIMIT1	POTEN	-6.00000E-001	F	Scan Limit &1 (V)
VLIMIT2	POTEN	8.00000E-001	F	Scan Limit &2 (V)
VFINAL	POTEN	0.00000E+000	T	Final &E (V)
SCANRATE	QUANT	4.99999E+002	&Scan Rate (mV/s)
STEPSIZE	QUANT	1.00000E+001	St&ep Size (mV)
CYCLES	IQUANT	3	C&ycles (#)
IMODE	SELECTOR	1	I/E Range &Mode
IRANGE	QUANT	1.00000E-007	&Max Current (mA)
AREA	QUANT	1.00000E+000	Electrode &Area (cm^2)
ELECTRODETYPE	SELECTOR	0	Electrode Type
STRIPPING	TOGGLE	F	Used for Stripping
CONDIT	TWOPARAM	F	1.50000E+001	0.00000E+000	Conditionin&g	Time(s)	E(V)
DELAY	TWOPARAM	T	1.50000E+001	0.00000E+000	Init. De&lay	Time(s)	Stab.(mV/s)
EQDELAY	QUANT	0.00000E+000	Equil. &Time (s)
IRCOMP	SELECTOR	0	IRCom&p
PFCOR	QUANT	5.00000E+001	PF Corr. (ohm)
SAMPLINGMODE	SELECTOR	2	Sampling &Mode
OCVCURVE	TABLE	58
	Pt	T	Vf	Vm	Ach	Over	Temp
	#	s	V vs. Ref.	V	V	bits	deg C
	0	0.258333	5.44689E-001	5.44689E-001	0.00000E+000	...........	1367.65
	1	0.516667	5.44750E-001	5.47871E-001	0.00000E+000	...........	1367.65
	2	0.775	5.45129E-001	5.51170E-001	0.00000E+000	...........	1367.65
	3	1.03333	5.46221E-001	5.54527E-001	0.00000E+000	...........	1367.65
	4	1.29167	5.48229E-001	5.57845E-001	0.00000E+000	...........	1367.65
	5	1.55	5.50990E-001	5.61168E-001	0.00000E+000	...........	1367.65
	6	1.80833	5.54176E-001	5.64679E-001	0.00000E+000	...........	1367.65
	7	2.06667	5.57536E-001	5.68088E-001	0.00000E+000	...........	1367.65
	8	2.325	5.60952E-001	5.71560E-001	0.00000E+000	...........	1367.65
	9	2.58333	5.64387E-001	5.74932E-001	0.00000E+000	...........	1367.65
	10	2.84167	5.67822E-001	5.78219E-001	0.00000E+000	...........	1367.65
	11	3.1	5.71236E-001	5.81472E-001	0.00000E+000	...........	1367.65
	12	3.35833	5.74610E-001	5.84827E-001	0.00000E+000	...........	1367.51
	13	3.61667	5.77946E-001	5.88256E-001	0.00000E+000	...........	1367.48
	14	3.875	5.81273E-001	5.91660E-001	0.00000E+000	...........	1367.48
	15	4.13333	5.84618E-001	5.94990E-001	0.00000E+000	...........	1367.48
	16	4.39167	5.87988E-001	5.98469E-001	0.00000E+000	...........	1367.57
	17	4.65	5.91375E-001	6.01905E-001	0.00000E+000	...........	1367.57
	18	4.90833	5.94778E-001	6.05227E-001	0.00000E+000	...........	1367.57
	19	5.16667	5.98186E-001	6.08556E-001	0.00000E+000	...........	1367.57
	20	5.425	6.01577E-001	6.11714E-001	0.00000E+000	...........	1367.65
	21	5.68333	6.04929E-001	6.14975E-001	0.00000E+000	...........	1367.65
	22	5.94167	6.08229E-001	6.18222E-001	0.00000E+000	...........	1367.65
	23	6.2	6.11489E-001	6.21451E-001	0.00000E+000	...........	1367.65
	24	6.45833	6.14729E-001	6.24615E-001	0.00000E+000	...........	1367.65
	25	6.71667	6.17953E-001	6.27604E-001	0.00000E+000	...........	1367.65
	26	6.975	6.21144E-001	6.30630E-001	0.00000E+000	...........	1367.65
	27	7.23333	6.24277E-001	6.33527E-001	0.00000E+000	...........	1367.65
	28	7.49167	6.27342E-001	6.36451E-001	0.00000E+000	...........	1367.65
	29	7.75	6.30344E-001	6.39393E-001	0.00000E+000	...........	1367.65
	30	8.00833	6.33303E-001	6.42355E-001	0.00000E+000	...........	1367.65
	31	8.26667	6.36241E-001	6.45257E-001	0.00000E+000	...........	1367.65
	32	8.525	6.39175E-001	6.48232E-001	0.00000E+000	...........	1367.65
	33	8.78333	6.42110E-001	6.51102E-001	0.00000E+000	...........	1367.65
	34	9.04167	6.45041E-001	6.53893E-001	0.00000E+000	...........	1367.65
	35	9.3	6.47949E-001	6.56576E-001	0.00000E+000	...........	1367.65
	36	9.5583	6.50809E-001	6.59159E-001	0.00000E+000	...........	1367.65
	37	9.8167	6.53595E-001	6.61714E-001	0.00000E+000	...........	1367.65
	38	10.075	6.56293E-001	6.63952E-001	0.00000E+000	...........	1367.65
	39	10.3333	6.58892E-001	6.66450E-001	0.00000E+000	...........	1367.50
	40	10.5917	6.61398E-001	6.68839E-001	0.00000E+000	...........	1367.22
	41	10.85	6.63837E-001	6.71150E-001	0.00000E+000	...........	1367.22
	42	11.1083	6.66238E-001	6.73469E-001	0.00000E+000	...........	1367.22
	43	11.3667	6.68610E-001	6.75662E-001	0.00000E+000	...........	1367.57
	44	11.625	6.70945E-001	6.77957E-001	0.00000E+000	...........	1367.57
	45	11.8833	6.73243E-001	6.80186E-001	0.00000E+000	...........	1367.57
	46	12.1417	6.75511E-001	6.82359E-001	0.00000E+000	...........	1367.57
	47	12.4	6.77757E-001	6.84495E-001	0.00000E+000	...........	1367.57
	48	12.6583	6.79974E-001	6.86552E-001	0.00000E+000	...........	1367.57
	49	12.9167	6.82154E-001	6.88727E-001	0.00000E+000	...........	1367.57
	50	13.175	6.84300E-001	6.90851E-001	0.00000E+000	...........	1367.57
	51	13.4333	6.86427E-001	6.92830E-001	0.00000E+000	...........	1367.65
	52	13.6917	6.88537E-001	6.94877E-001	0.00000E+000	...........	1367.65
	53	13.95	6.90619E-001	6.96746E-001	0.00000E+000	...........	1367.65
	54	14.2083	6.92658E-001	6.98614E-001	0.00000E+000	...........	1367.65
	55	14.4667	6.94641E-001	7.00405E-001	0.00000E+000	...........	1367.65
	56	14.725	6.96564E-001	7.02206E-001	0.00000E+000	...........	1367.65
	57	14.9833	6.98433E-001	7.04015E-001	0.00000E+000	...........	1367.65
EOC	QUANT	0.698433	Open Circuit (V)
PSTATMODEL	IQUANT	64	Pstat Model
PSTATSECTION	LABEL	IFC1010-32247	Pstat Section
PSTATSERIALNO	LABEL	32247	Pstat Serial Number
CTRLMODE	IQUANT	1	Control Mode
ELECTROMETER	IQUANT	0	RE=0 or CS=1
IESTAB	IQUANT	2	I/E Stability
CASPEED	IQUANT	4	Control Amp Speed
CONVENTION	IQUANT	1	Current Convention
ICHRANGE	IQUANT	2	Ich Range
ICHRANGEMODE	TOGGLE	F	Ich Auto Range
ICHOFFSETENABLE	TOGGLE	F	Ich Offset Enable
ICHOFFSET	QUANT	0	Ich Offset (V)
ICHFILTER	IQUANT	3	Ich Filter
VCHRANGE	IQUANT	2	Vch Range
VCHRANGEMODE	TOGGLE	F	Vch Auto Range
VCHOFFSETENABLE	TOGGLE	F	Vch Offset Enable
VCHOFFSET	QUANT	0	Vch Offset (V)
VCHFILTER	IQUANT	3	Vch Filter
IERANGELOWERLIMIT	IQUANT	4	I/E Range Lower Limit
IERANGEMODE	TOGGLE	F	I/E AutoRange
IERANGE	IQUANT	4	I/E Range
ACHSELECT	IQUANT	0	Ach Select
ACHRANGE	IQUANT	2	Ach Range
ACHOFFSETENABLE	TOGGLE	F	Ach Offset Enable
ACHOFFSET	QUANT	0	Ach Offset (V)
ACHFILTER	IQUANT	1	Ach Filter
SENSECABLEID	IQUANT	14	Sense Cable ID
PWRCABLEID	IQUANT	14	Power Cable ID
DCCALDATE	LABEL	11/18/2024	DC Calibration Date
ACCALDATE	LABEL	4/18/2022	AC Calibration Date
FRAMEWORKVERSION	LABEL	7.10.3	Framework Version
INSTRUMENTVERSION	LABEL	4.91	Instrument Version
COMMVERSION	LABEL	3.10	Communications Version
CPUPLDVERSION	LABEL	2.22	CPU PLD Version
CTRLPLDVERSION	LABEL	0.00	CTRL PLD Version
PSTATPLDVERSION	LABEL	0.00	PSTAT PLD Version
CURVE1	TABLE
	Pt	T	Vf	Im	Vu	Sig	Ach	IERange	Over	Temp
	#	s	V vs. Ref.	A	V	V	V	#	bits	deg C
	0	0.02	6.98511E-001	-1.10032E-011	0.00000E+000	6.98420E-001	0.00000E+000	4	...........	1367.65
	3	0.08	6.68631E-001	-4.83796E-011	0.00000E+000	6.68428E-001	0.00000E+000	4	...........	1367.65
	6	0.14	6.38604E-001	-6.97937E-011	0.00000E+000	6.38436E-001	0.00000E+000	4	...........	1367.65
	9	0.2	6.08646E-001	-8.46152E-011	0.00000E+000	6.08443E-001	0.00000E+000	4	...........	1367.65
	12	0.26	5.78649E-001	-9.54419E-011	0.00000E+000	5.78451E-001	0.00000E+000	4	...........	1367.65
	15	0.32	5.48607E-001	-1.04589E-010	0.00000E+000	5.48409E-001	0.00000E+000	4	...........	1367.65
	18	0.38	5.18599E-001	-1.14105E-010	0.00000E+000	5.18416E-001	0.00000E+000	4	...........	1367.65
	21	0.44	4.88632E-001	-1.25076E-010	0.00000E+000	4.88424E-001	0.00000E+000	4	...........	1367.65
	24	0.5	4.58603E-001	-1.38979E-010	0.00000E+000	4.58432E-001	0.00000E+000	4	...........	1367.65
	27	0.56	4.28627E-001	-1.53301E-010	0.00000E+000	4.28439E-001	0.00000E+000	4	...........	1367.65
	30	0.62	3.98623E-001	-1.68018E-010	0.00000E+000	3.98447E-001	0.00000E+000	4	...........	1367.65
	33	0.68	3.68640E-001	-1.84227E-010	0.00000E+000	3.68455E-001	0.00000E+000	4	...........	1367.65
	36	0.74	3.38578E-001	-2.00798E-010	0.00000E+000	3.38412E-001	0.00000E+000	4	...........	1367.65
	39	0.8	3.08595E-001	-2.15895E-010	0.00000E+000	3.08420E-001	0.00000E+000	4	...........	1367.65
	42	0.86	2.78583E-001	-2.26339E-010	0.00000E+000	2.78428E-001	0.00000E+000	4	...........	1367.65
	45	0.92	2.48599E-001	-2.32600E-010	0.00000E+000	2.48435E-001	0.00000E+000	4	...........	1367.65
	48	0.98	2.18597E-001	-2.37623E-010	0.00000E+000	2.18443E-001	0.00000E+000	4	...........	1367.65
	51	1.04	1.88597E-001	-2.41488E-010	0.00000E+000	1.88451E-001	0.00000E+000	4	...........	1367.65
	54	1.1	1.58600E-001	-2.42186E-010	0.00000E+000	1.58458E-001	0.00000E+000	4	...........	1367.65
	57	1.16	1.28573E-001	-2.39974E-010	0.00000E+000	1.28416E-001	0.00000E+000	4	...........	1367.65
	60	1.22	9.85560E-002	-2.36886E-010	0.00000E+000	9.84238E-002	0.00000E+000	4	...........	1367.65
	63	1.28	6.85714E-002	-2.33607E-010	0.00000E+000	6.84315E-002	0.00000E+000	4	...........	1367.65
	66	1.34	3.85914E-002	-2.29374E-010	0.00000E+000	3.84391E-002	0.00000E+000	4	...........	1367.65
	69	1.4	8.58956E-003	-2.28421E-010	0.00000E+000	8.44681E-003	0.00000E+000	4	...........	1367.65
	72	1.46	-2.14297E-002	-2.31290E-010	0.00000E+000	-2.15455E-002	0.00000E+000	4	...........	1367.65
	75	1.52	-5.14745E-002	-2.37464E-010	0.00000E+000	-5.15878E-002	0.00000E+000	4	...........	1367.65
	78	1.58	-8.14551E-002	-2.46353E-010	0.00000E+000	-8.15801E-002	0.00000E+000	4	...........	1366.62
	81	1.64	-1.11436E-001	-2.56013E-010	0.00000E+000	-1.11572E-001	0.00000E+000	4	...........	1366.62
	84	1.7	-1.41461E-001	-2.64987E-010	0.00000E+000	-1.41565E-001	0.00000E+000	4	...........	1366.62
	87	1.76	-1.71434E-001	-2.75799E-010	0.00000E+000	-1.71557E-001	0.00000E+000	4	...........	1366.62
	90	1.82	-2.01435E-001	-2.90751E-010	0.00000E+000	-2.01549E-001	0.00000E+000	4	...........	1366.62
	93	1.88	-2.31442E-001	-3.03259E-010	0.00000E+000	-2.31542E-001	0.00000E+000	4	...........	1366.62
	96	1.94	-2.61450E-001	-3.15814E-010	0.00000E+000	-2.61584E-001	0.00000E+000	4	...........	1366.62
	99	2	-2.91450E-001	-3.22035E-010	0.00000E+000	-2.91576E-001	0.00000E+000	4	...........	1366.62
	102	2.06	-3.21452E-001	-3.28046E-010	0.00000E+000	-3.21569E-001	0.00000E+000	4	...........	1366.62
	105	2.12	-3.51447E-001	-3.36651E-010	0.00000E+000	-3.51561E-001	0.00000E+000	4	...........	1366.62
	108	2.18	-3.81429E-001	-3.37523E-010	0.00000E+000	-3.81553E-001	0.00000E+000	4	...........	1366.62
	111	2.24	-4.11441E-001	-3.45795E-010	0.00000E+000	-4.11546E-001	0.00000E+000	4	...........	1366.62
	114	2.3	-4.41487E-001	-3.56653E-010	0.00000E+000	-4.41588E-001	0.00000E+000	4	...........	1366.62
	117	2.36	-4.71472E-001	-3.64379E-010	0.00000E+000	-4.71580E-001	0.00000E+000	4	...........	1366.62
	120	2.42	-5.01492E-001	-3.79257E-010	0.00000E+000	-5.01573E-001	0.00000E+000	4	...........	1366.62
	123	2.48	-5.31445E-001	-3.95449E-010	0.00000E+000	-5.31565E-001	0.00000E+000	4	...........	1366.62
	126	2.54	-5.61445E-001	-4.06805E-010	0.00000E+000	-5.61557E-001	0.00000E+000	4	...........	1366.62
	129	2.6	-5.91462E-001	-4.26269E-010	0.00000E+000	-5.91550E-001	0.00000E+000	4	...........	1366.45
	132	2.66	-5.81670E-001	-3.69402E-010	0.00000E+000	-5.81552E-001	0.00000E+000	4	...........	1366.45
	135	2.72	-5.51693E-001	-3.18254E-010	0.00000E+000	-5.51560E-001	0.00000E+000	4	...........	1366.45
	138	2.78	-5.21651E-001	-2.81278E-010	0.00000E+000	-5.21568E-001	0.00000E+000	4	...........	1366.45
	141	2.84	-4.91692E-001	-2.49213E-010	0.00000E+000	-4.91575E-001	0.00000E+000	4	...........	1366.45
	144	2.9	-4.61717E-001	-2.18402E-010	0.00000E+000	-4.61583E-001	0.00000E+000	4	...........	1366.45
	147	2.96	-4.31640E-001	-1.88370E-010	0.00000E+000	-4.31541E-001	0.00000E+000	4	...........	1366.45
	150	3.02	-4.01659E-001	-1.59227E-010	0.00000E+000	-4.01548E-001	0.00000E+000	4	...........	1366.45
	153	3.08	-3.71660E-001	-1.32639E-010	0.00000E+000	-3.71556E-001	0.00000E+000	4	...........	1366.45
	156	3.14	-3.41687E-001	-1.06575E-010	0.00000E+000	-3.41564E-001	0.00000E+000	4	...........	1366.45
	159	3.2	-3.11675E-001	-8.29888E-011	0.00000E+000	-3.11571E-001	0.00000E+000	4	...........	1366.45
	162	3.26	-2.81684E-001	-6.09875E-011	0.00000E+000	-2.81579E-001	0.00000E+000	4	...........	1366.45
	165	3.32	-2.51686E-001	-4.10598E-011	0.00000E+000	-2.51587E-001	0.00000E+000	4	...........	1366.45
	168	3.38	-2.21658E-001	-2.22724E-011	0.00000E+000	-2.21544E-001	0.00000E+000	4	...........	1366.45
	171	3.44	-1.91644E-001	-7.14171E-012	0.00000E+000	-1.91552E-001	0.00000E+000	4	...........	1366.45
	174	3.5	-1.61667E-001	7.62094E-012	0.00000E+000	-1.61560E-001	0.00000E+000	4	...........	1366.45
	177	3.56	-1.31674E-001	2.18688E-011	0.00000E+000	-1.31567E-001	0.00000E+000	4	...........	1366.52
	180	3.62	-1.01684E-001	3.48847E-011	0.00000E+000	-1.01575E-001	0.00000E+000	4	...........	1366.62
	183	3.68	-7.16991E-002	4.55453E-011	0.00000E+000	-7.15827E-002	0.00000E+000	4	...........	1366.62
	186	3.74	-4.17073E-002	5.69378E-011	0.00000E+000	-4.15904E-002	0.00000E+000	4	...........	1366.62
	189	3.8	-1.16454E-002	6.84327E-011	0.00000E+000	-1.15481E-002	0.00000E+000	4	...........	1366.62
	192	3.86	1.83477E-002	8.02550E-011	0.00000E+000	1.84442E-002	0.00000E+000	4	...........	1366.62
	195	3.92	4.83455E-002	9.27005E-011	0.00000E+000	4.84366E-002	0.00000E+000	4	...........	1366.62
	198	3.98	7.83619E-002	1.05977E-010	0.00000E+000	7.84289E-002	0.00000E+000	4	...........	1366.62
	201	4.04	1.08349E-001	1.20005E-010	0.00000E+000	1.08421E-001	0.00000E+000	4	...........	1366.62
	204	4.1	1.38336E-001	1.34056E-010	0.00000E+000	1.38414E-001	0.00000E+000	4	...........	1366.62
	207	4.16	1.68389E-001	1.48762E-010	0.00000E+000	1.68456E-001	0.00000E+000	4	...........	1366.62
	210	4.22	1.98384E-001	1.64322E-010	0.00000E+000	1.98448E-001	0.00000E+000	4	...........	1366.62
	213	4.28	2.28372E-001	1.83669E-010	0.00000E+000	2.28440E-001	0.00000E+000	4	...........	1366.62
	216	4.34	2.58372E-001	2.02598E-010	0.00000E+000	2.58433E-001	0.00000E+000	4	...........	1366.62
	219	4.4	2.88382E-001	2.15264E-010	0.00000E+000	2.88425E-001	0.00000E+000	4	...........	1366.62
	222	4.46	3.18340E-001	2.24567E-010	0.00000E+000	3.18417E-001	0.00000E+000	4	...........	1366.62
	225	4.52	3.48335E-001	2.29732E-010	0.00000E+000	3.48410E-001	0.00000E+000	4	...........	1366.62
	228	4.58	3.78386E-001	2.32006E-010	0.00000E+000	3.78452E-001	0.00000E+000	4	...........	1366.79
	231	4.64	4.08388E-001	2.30786E-010	0.00000E+000	4.08444E-001	0.00000E+000	4	...........	1366.79
	234	4.7	4.38403E-001	2.28138E-010	0.00000E+000	4.38437E-001	0.00000E+000	4	...........	1366.79
	237	4.76	4.68381E-001	2.21273E-010	0.00000E+000	4.68429E-001	0.00000E+000	4	...........	1366.79
	240	4.82	4.98368E-001	2.12746E-010	0.00000E+000	4.98421E-001	0.00000E+000	4	...........	1366.79
	243	4.88	5.28382E-001	2.05835E-010	0.00000E+000	5.28414E-001	0.00000E+000	4	...........	1366.79
	246	4.94	5.58416E-001	2.00903E-010	0.00000E+000	5.58456E-001	0.00000E+000	4	...........	1366.79
	249	5	5.88430E-001	1.95294E-010	0.00000E+000	5.88448E-001	0.00000E+000	4	...........	1366.79
	252	5.06	6.18419E-001	1.92088E-010	0.00000E+000	6.18441E-001	0.00000E+000	4	...........	1366.79
	255	5.12	6.48412E-001	1.89311E-010	0.00000E+000	6.48433E-001	0.00000E+000	4	...........	1366.79
	258	5.18	6.78422E-001	1.85570E-010	0.00000E+000	6.78425E-001	0.00000E+000	4	...........	1366.79
	261	5.24	7.08410E-001	1.81627E-010	0.00000E+000	7.08418E-001	0.00000E+000	4	...........	1366.79
	264	5.3	7.38412E-001	1.78860E-010	0.00000E+000	7.38410E-001	0.00000E+000	4	...........	1366.79
	267	5.36	7.68454E-001	1.84923E-010	0.00000E+000	7.68452E-001	0.00000E+000	4	...........	1366.79
	270	5.42	7.98436E-001	2.06474E-010	0.00000E+000	7.98445E-001	0.00000E+000	4	...........	1366.79
CURVE2	TABLE
	Pt	T	Vf	Im	Vu	Sig	Ach	IERange	Over	Temp
	#	s	V vs. Ref.	A	V	V	V	#	bits	deg C
	271	5.44	7.90197E-001	1.69346E-010	0.00000E+000	7.89997E-001	0.00000E+000	4	...........	1366.79
	274	5.5	7.60210E-001	7.31966E-011	0.00000E+000	7.60004E-001	0.00000E+000	4	...........	1366.79
	277	5.56	7.30234E-001	2.88166E-011	0.00000E+000	7.30012E-001	0.00000E+000	4	...........	1366.66
	280	5.62	7.00221E-001	4.27062E-012	0.00000E+000	7.00020E-001	0.00000E+000	4	...........	1366.54
	283	5.68	6.70174E-001	-1.31693E-011	0.00000E+000	6.69977E-001	0.00000E+000	4	...........	1366.54
	286	5.74	6.40180E-001	-2.83778E-011	0.00000E+000	6.39985E-001	0.00000E+000	4	...........	1366.54
	289	5.8	6.10178E-001	-3.87519E-011	0.00000E+000	6.09993E-001	0.00000E+000	4	...........	1366.54
	292	5.86	5.80208E-001	-4.84278E-011	0.00000E+000	5.80001E-001	0.00000E+000	4	...........	1366.54
	295	5.92	5.50206E-001	-5.79668E-011	0.00000E+000	5.50008E-001	0.00000E+000	4	...........	1366.54
	298	5.98	5.20193E-001	-6.85632E-011	0.00000E+000	5.20016E-001	0.00000E+000	4	...........	1366.54
	301	6.04	4.90235E-001	-8.05852E-011	0.00000E+000	4.90024E-001	0.00000E+000	4	...........	1366.54
	304	6.1	4.60153E-001	-9.42959E-011	0.00000E+000	4.59981E-001	0.00000E+000	4	...........	1366.54
	307	6.16	4.30177E-001	-1.10115E-010	0.00000E+000	4.29989E-001	0.00000E+000	4	...........	1366.54
	310	6.22	4.00163E-001	-1.27090E-010	0.00000E+000	3.99997E-001	0.00000E+000	4	...........	1366.54
	313	6.28	3.70181E-001	-1.41170E-010	0.00000E+000	3.70004E-001	0.00000E+000	4	...........	1366.54
	316	6.34	3.40177E-001	-1.49216E-010	0.00000E+000	3.40012E-001	0.00000E+000	4	...........	1366.54
	319	6.4	3.10204E-001	-1.53848E-010	0.00000E+000	3.10020E-001	0.00000E+000	4	...........	1366.54
[...]
	605	12.12	2.50137E-001	-1.49898E-010	0.00000E+000	2.49985E-001	0.00000E+000	4	...........	1366.54
	608	12.18	2.20136E-001	-1.51149E-010	0.00000E+000	2.19993E-001	0.00000E+000	4	...........	1366.54
	611	12.24	1.90153E-001	-1.51440E-010	0.00000E+000	1.90000E-001	0.00000E+000	4	...........	1366.54
	614	12.3	1.60179E-001	-1.50628E-010	0.00000E+000	1.60008E-001	0.00000E+000	4	...........	1366.54
	617	12.36	1.30171E-001	-1.50020E-010	0.00000E+000	1.30016E-001	0.00000E+000	4	...........	1366.54
	620	12.42	1.00170E-001	-1.50358E-010	0.00000E+000	1.00023E-001	0.00000E+000	4	...........	1366.54
	623	12.48	7.01390E-002	-1.51889E-010	0.00000E+000	6.99811E-002	0.00000E+000	4	...........	1366.54
	626	12.54	4.01343E-002	-1.54147E-010	0.00000E+000	3.99887E-002	0.00000E+000	4	...........	1366.54
	629	12.6	1.01391E-002	-1.57803E-010	0.00000E+000	9.99641E-003	0.00000E+000	4	...........	1366.45
	632	12.66	-1.98752E-002	-1.64876E-010	0.00000E+000	-1.99959E-002	0.00000E+000	4	...........	1366.45
	635	12.72	-4.98592E-002	-1.73744E-010	0.00000E+000	-4.99882E-002	0.00000E+000	4	...........	1366.45
	638	12.78	-7.98548E-002	-1.83846E-010	0.00000E+000	-7.99806E-002	0.00000E+000	4	...........	1366.45
	641	12.84	-1.09897E-001	-1.96318E-010	0.00000E+000	-1.10023E-001	0.00000E+000	4	...........	1366.45
	644	12.9	-1.39887E-001	-2.07350E-010	0.00000E+000	-1.40015E-001	0.00000E+000	4	...........	1366.45
	647	12.96	-1.69886E-001	-2.22014E-010	0.00000E+000	-1.70007E-001	0.00000E+000	4	...........	1366.45
	650	13.02	-1.99872E-001	-2.38185E-010	0.00000E+000	-2.00000E-001	0.00000E+000	4	...........	1366.45
	653	13.08	-2.29869E-001	-2.53677E-010	0.00000E+000	-2.29992E-001	0.00000E+000	4	...........	1366.45
	656	13.14	-2.59875E-001	-2.67104E-010	0.00000E+000	-2.59984E-001	0.00000E+000	4	...........	1366.45
	659	13.2	-2.89864E-001	-2.78620E-010	0.00000E+000	-2.89977E-001	0.00000E+000	4	...........	1366.45
	662	13.26	-3.19901E-001	-2.88773E-010	0.00000E+000	-3.20019E-001	0.00000E+000	4	...........	1366.45
	665	13.32	-3.49919E-001	-2.96040E-010	0.00000E+000	-3.50011E-001	0.00000E+000	4	...........	1366.45
	668	13.38	-3.79888E-001	-3.03129E-010	0.00000E+000	-3.80004E-001	0.00000E+000	4	...........	1366.45
	671	13.44	-4.09883E-001	-3.08542E-010	0.00000E+000	-4.09996E-001	0.00000E+000	4	...........	1366.45
	674	13.5	-4.39883E-001	-3.12130E-010	0.00000E+000	-4.39988E-001	0.00000E+000	4	...........	1366.45
	677	13.56	-4.69876E-001	-3.18009E-010	0.00000E+000	-4.69981E-001	0.00000E+000	4	...........	1366.45
	680	13.62	-4.99890E-001	-3.21378E-010	0.00000E+000	-4.99973E-001	0.00000E+000	4	...........	1366.45
	683	13.68	-5.29897E-001	-3.32512E-010	0.00000E+000	-5.30015E-001	0.00000E+000	4	...........	1366.45
	686	13.74	-5.59901E-001	-3.46033E-010	0.00000E+000	-5.60008E-001	0.00000E+000	4	...........	1366.45
	689	13.8	-5.89911E-001	-3.58652E-010	0.00000E+000	-5.90000E-001	0.00000E+000	4	...........	1366.45
	692	13.86	-5.80128E-001	-2.98056E-010	0.00000E+000	-5.80003E-001	0.00000E+000	4	...........	1366.45
	695	13.92	-5.50124E-001	-2.41909E-010	0.00000E+000	-5.50010E-001	0.00000E+000	4	...........	1366.45
	698	13.98	-5.20110E-001	-2.05112E-010	0.00000E+000	-5.20018E-001	0.00000E+000	4	...........	1366.45
	701	14.04	-4.90110E-001	-1.76829E-010	0.00000E+000	-4.89976E-001	0.00000E+000	4	...........	1366.45
	704	14.1	-4.60110E-001	-1.46967E-010	0.00000E+000	-4.59983E-001	0.00000E+000	4	...........	1366.45
	707	14.16	-4.30108E-001	-1.15019E-010	0.00000E+000	-4.29991E-001	0.00000E+000	4	...........	1366.45
	710	14.22	-4.00096E-001	-8.88197E-011	0.00000E+000	-3.99999E-001	0.00000E+000	4	...........	1366.45
	713	14.28	-3.70115E-001	-6.28847E-011	0.00000E+000	-3.70006E-001	0.00000E+000	4	...........	1366.45
	716	14.34	-3.40130E-001	-3.85803E-011	0.00000E+000	-3.40014E-001	0.00000E+000	4	...........	1366.45
	719	14.4	-3.10144E-001	-1.39768E-011	0.00000E+000	-3.10022E-001	0.00000E+000	4	...........	1366.45
	722	14.46	-2.80086E-001	7.32907E-012	0.00000E+000	-2.79979E-001	0.00000E+000	4	...........	1366.45
	725	14.52	-2.50096E-001	2.59287E-011	0.00000E+000	-2.49987E-001	0.00000E+000	4	...........	1366.45
	728	14.58	-2.20100E-001	4.24704E-011	0.00000E+000	-2.19995E-001	0.00000E+000	4	...........	1366.45
	731	14.64	-1.90099E-001	5.81173E-011	0.00000E+000	-1.90002E-001	0.00000E+000	4	...........	1366.45
	734	14.7	-1.60094E-001	7.17119E-011	0.00000E+000	-1.60010E-001	0.00000E+000	4	...........	1366.45
	737	14.76	-1.30123E-001	8.42415E-011	0.00000E+000	-1.30018E-001	0.00000E+000	4	...........	1366.45
	740	14.82	-1.00085E-001	9.43329E-011	0.00000E+000	-9.99754E-002	0.00000E+000	4	...........	1366.45
	743	14.88	-7.00818E-002	1.03266E-010	0.00000E+000	-6.99831E-002	0.00000E+000	4	...........	1366.45
	746	14.94	-4.01118E-002	1.11559E-010	0.00000E+000	-3.99908E-002	0.00000E+000	4	...........	1366.45
	749	15	-1.01000E-002	1.21067E-010	0.00000E+000	-9.99847E-003	0.00000E+000	4	...........	1366.45
	752	15.06	1.99095E-002	1.30641E-010	0.00000E+000	1.99939E-002	0.00000E+000	4	...........	1366.45
	755	15.12	4.99089E-002	1.39953E-010	0.00000E+000	4.99862E-002	0.00000E+000	4	...........	1366.45
	758	15.18	7.99083E-002	1.50171E-010	0.00000E+000	7.99785E-002	0.00000E+000	4	...........	1366.45
	761	15.24	1.09954E-001	1.60565E-010	0.00000E+000	1.10021E-001	0.00000E+000	4	...........	1366.45
	764	15.3	1.39925E-001	1.71010E-010	0.00000E+000	1.40013E-001	0.00000E+000	4	...........	1366.45
	767	15.36	1.69932E-001	1.81959E-010	0.00000E+000	1.70005E-001	0.00000E+000	4	...........	1366.45
	770	15.42	1.99930E-001	1.92734E-010	0.00000E+000	1.99998E-001	0.00000E+000	4	...........	1366.45
	773	15.48	2.29944E-001	2.06704E-010	0.00000E+000	2.29990E-001	0.00000E+000	4	...........	1366.45
	776	15.54	2.59921E-001	2.20902E-010	0.00000E+000	2.59982E-001	0.00000E+000	4	...........	1366.45
	779	15.6	2.89970E-001	2.31341E-010	0.00000E+000	2.90025E-001	0.00000E+000	4	...........	1366.88
	782	15.66	3.19963E-001	2.37822E-010	0.00000E+000	3.20017E-001	0.00000E+000	4	...........	1366.88
	785	15.72	3.49961E-001	2.40722E-010	0.00000E+000	3.50009E-001	0.00000E+000	4	...........	1366.88
	788	15.78	3.79943E-001	2.41599E-010	0.00000E+000	3.80002E-001	0.00000E+000	4	...........	1366.88
	791	15.84	4.09960E-001	2.38736E-010	0.00000E+000	4.09994E-001	0.00000E+000	4	...........	1366.88
	794	15.9	4.39946E-001	2.32602E-010	0.00000E+000	4.39986E-001	0.00000E+000	4	...........	1366.88
	797	15.96	4.69931E-001	2.24817E-010	0.00000E+000	4.69979E-001	0.00000E+000	4	...........	1366.88
	800	16.02	4.99984E-001	2.15975E-010	0.00000E+000	5.00021E-001	0.00000E+000	4	...........	1366.88
	803	16.08	5.29963E-001	2.06612E-010	0.00000E+000	5.30013E-001	0.00000E+000	4	...........	1366.88
	806	16.14	5.59969E-001	2.02410E-010	0.00000E+000	5.60006E-001	0.00000E+000	4	...........	1366.88
	809	16.2	5.89973E-001	1.97627E-010	0.00000E+000	5.89998E-001	0.00000E+000	4	...........	1366.88
	812	16.26	6.19956E-001	1.95601E-010	0.00000E+000	6.19990E-001	0.00000E+000	4	...........	1366.88
	815	16.32	6.49944E-001	1.92704E-010	0.00000E+000	6.49983E-001	0.00000E+000	4	...........	1366.88
	818	16.38	6.79991E-001	1.91296E-010	0.00000E+000	6.80025E-001	0.00000E+000	4	...........	1366.88
	821	16.44	7.10000E-001	1.86012E-010	0.00000E+000	7.10017E-001	0.00000E+000	4	...........	1366.88
	824	16.5	7.39980E-001	1.83703E-010	0.00000E+000	7.40010E-001	0.00000E+000	4	...........	1366.88
	827	16.56	7.69996E-001	1.90169E-010	0.00000E+000	7.70002E-001	0.00000E+000	4	...........	1366.80
	830	16.62	7.99999E-001	2.14286E-010	0.00000E+000	7.99994E-001	0.00000E+000	4	...........	1366.79
CURVE4	TABLE
	Pt	T	Vf	Im	Vu	Sig	Ach	IERange	Over	Temp
	#	s	V vs. Ref.	A	V	V	V	#	bits	deg C
	831	16.64	7.90208E-001	1.71949E-010	0.00000E+000	7.89997E-001	0.00000E+000	4	...........	1366.79
	832	16.66	7.80186E-001	1.31104E-010	0.00000E+000	7.79999E-001	0.00000E+000	4	...........	1366.79
	833	16.68	7.70207E-001	9.96269E-011	0.00000E+000	7.70002E-001	0.00000E+000	4	...........	1366.79
	834	16.7	7.60199E-001	7.59875E-011	0.00000E+000	7.60004E-001	0.00000E+000	4	...........	1366.79
	835	16.72	7.50198E-001	5.79133E-011	0.00000E+000	7.50007E-001	0.00000E+000	4	...........	1366.79
	836	16.74	7.40188E-001	4.38259E-011	0.00000E+000	7.40010E-001	0.00000E+000	4	...........	1366.79
	837	16.76	7.30226E-001	3.31028E-011	0.00000E+000	7.30012E-001	0.00000E+000	4	...........	1366.79
	838	16.78	7.20220E-001	2.35717E-011	0.00000E+000	7.20015E-001	0.00000E+000	4	...........	1366.79
	839	16.8	7.10246E-001	1.56302E-011	0.00000E+000	7.10017E-001	0.00000E+000	4	...........	1366.79
	840	16.82	7.00223E-001	8.99125E-012	0.00000E+000	7.00020E-001	0.00000E+000	4	...........	1366.79