File: Test_Data_Files/20250424_F_CHI105_2mmAu_E000_PBSarg_CV5000.DTA
EXPLAIN
TAG	CV
TITLE	LABEL	Cyclic Voltammetry	Test &Identifier
DATE	LABEL	4/24/2025	Date
TIME	LABEL	17:00:35	Time
NOTES	NOTES	3	&Notes...

PSTAT	PSTAT	IFC1010-32247	Potentiostat
VINIT	POTEN	0.00000E+000	T	Initial &E (V)
VLIMIT1	POTEN	-6.00000E-001	F	Scan Limit &1 (V)
VLIMIT2	POTEN	8.00000E-001	F	Scan Limit &2 (V)
VFINAL	POTEN	0.00000E+000	T	Final &E (V)
SCANRATE	QUANT	4.99999E+003	&Scan Rate (mV/s)
STEPSIZE	QUANT	1.00000E+001	St&ep Size (mV)
CYCLES	IQUANT	3	C&ycles (#)
IMODE	SELECTOR	1	I/E Range &Mode
IRANGE	QUANT	1.00000E-002	&Max Current (mA)
AREA	QUANT	1.00000E+000	Electrode &Area (cm^2)
ELECTRODETYPE	SELECTOR	0	Electrode Type
STRIPPING	TOGGLE	F	Used for Stripping
CONDIT	TWOPARAM	F	1.50000E+001	0.00000E+000	Conditionin&g	Time(s)	E(V)
DELAY	TWOPARAM	T	1.50000E+001	0.00000E+000	Init. De&lay	Time(s)	Stab.(mV/s)
EQDELAY	QUANT	0.00000E+000	Equil. &Time (s)
IRCOMP	SELECTOR	0	IRCom&p
PFCOR	QUANT	5.00000E+001	PF Corr. (ohm)
SAMPLINGMODE	SELECTOR	2	Sampling &Mode
OCVCURVE	TABLE	58
	Pt	T	Vf	Vm	Ach	Over	Temp
	#	s	V vs. Ref.	V	V	bits	deg C
	0	0.258333	2.76920E-001	2.76920E-001	0.00000E+000	...........	1367.91
	1	0.516667	2.76919E-001	2.76858E-001	0.00000E+000	...........	1367.91
	2	0.775	2.76911E-001	2.76781E-001	0.00000E+000	...........	1367.91
	3	1.03333	2.76889E-001	2.76709E-001	0.00000E+000	...........	1367.60
	4	1.29167	2.76846E-001	2.76638E-001	0.00000E+000	...........	1367.57
	5	1.55	2.76787E-001	2.76585E-001	0.00000E+000	...........	1367.57
	6	1.80833	2.76719E-001	2.76501E-001	0.00000E+000	...........	1367.57
	7	2.06667	2.76650E-001	2.76439E-001	0.00000E+000	...........	1367.91
	8	2.325	2.76581E-001	2.76379E-001	0.00000E+000	...........	1367.91
	9	2.58333	2.76513E-001	2.76312E-001	0.00000E+000	...........	1367.91
	10	2.84167	2.76447E-001	2.76247E-001	0.00000E+000	...........	1367.91
	11	3.1	2.76381E-001	2.76172E-001	0.00000E+000	...........	1368.00
	12	3.35833	2.76316E-001	2.76111E-001	0.00000E+000	...........	1368.00
	13	3.61667	2.76249E-001	2.76050E-001	0.00000E+000	...........	1368.00
	14	3.875	2.76182E-001	2.75978E-001	0.00000E+000	...........	1368.00
	15	4.13333	2.76116E-001	2.75912E-001	0.00000E+000	...........	1368.00
	16	4.39167	2.76051E-001	2.75852E-001	0.00000E+000	...........	1368.00
	17	4.65	2.75985E-001	2.75796E-001	0.00000E+000	...........	1368.00
	18	4.90833	2.75921E-001	2.75726E-001	0.00000E+000	...........	1368.00
	19	5.16667	2.75858E-001	2.75662E-001	0.00000E+000	...........	1368.00
	20	5.425	2.75795E-001	2.75584E-001	0.00000E+000	...........	1368.00
	21	5.68333	2.75730E-001	2.75523E-001	0.00000E+000	...........	1368.00
	22	5.94167	2.75663E-001	2.75469E-001	0.00000E+000	...........	1368.00
	23	6.2	2.75596E-001	2.75388E-001	0.00000E+000	...........	1368.00
	24	6.45833	2.75530E-001	2.75328E-001	0.00000E+000	...........	1368.00
	25	6.71667	2.75465E-001	2.75265E-001	0.00000E+000	...........	1368.00
	26	6.975	2.75399E-001	2.75212E-001	0.00000E+000	...........	1368.00
	27	7.23333	2.75335E-001	2.75136E-001	0.00000E+000	...........	1368.00
	28	7.49167	2.75272E-001	2.75079E-001	0.00000E+000	...........	1368.00
	29	7.75	2.75209E-001	2.75011E-001	0.00000E+000	...........	1368.00
	30	8.00833	2.75146E-001	2.74955E-001	0.00000E+000	...........	1368.00
	31	8.26667	2.75082E-001	2.74890E-001	0.00000E+000	...........	1368.00
	32	8.525	2.75020E-001	2.74841E-001	0.00000E+000	...........	1368.00
	33	8.78333	2.74958E-001	2.74765E-001	0.00000E+000	...........	1368.00
	34	9.04167	2.74898E-001	2.74709E-001	0.00000E+000	...........	1367.83
	35	9.3	2.74836E-001	2.74608E-001	0.00000E+000	...........	1367.83
	36	9.5583	2.74771E-001	2.74557E-001	0.00000E+000	...........	1367.83
	37	9.8167	2.74701E-001	2.74491E-001	0.00000E+000	...........	1367.83
	38	10.075	2.74631E-001	2.74433E-001	0.00000E+000	...........	1367.91
	39	10.3333	2.74563E-001	2.74365E-001	0.00000E+000	...........	1367.91
	40	10.5917	2.74497E-001	2.74290E-001	0.00000E+000	...........	1367.91
	41	10.85	2.74433E-001	2.74243E-001	0.00000E+000	...........	1367.91
	42	11.1083	2.74369E-001	2.74182E-001	0.00000E+000	...........	1368.00
	43	11.3667	2.74305E-001	2.74097E-001	0.00000E+000	...........	1368.00
	44	11.625	2.74242E-001	2.74042E-001	0.00000E+000	...........	1368.00
	45	11.8833	2.74178E-001	2.73984E-001	0.00000E+000	...........	1368.00
	46	12.1417	2.74113E-001	2.73938E-001	0.00000E+000	...........	1368.00
	47	12.4	2.74051E-001	2.73867E-001	0.00000E+000	...........	1368.00
	48	12.6583	2.73991E-001	2.73795E-001	0.00000E+000	...........	1368.00
	49	12.9167	2.73932E-001	2.73735E-001	0.00000E+000	...........	1368.00
	50	13.175	2.73869E-001	2.73676E-001	0.00000E+000	...........	1367.91
	51	13.4333	2.73806E-001	2.73628E-001	0.00000E+000	...........	1367.91
	52	13.6917	2.73744E-001	2.73558E-001	0.00000E+000	...........	1367.91
	53	13.95	2.73684E-001	2.73500E-001	0.00000E+000	...........	1367.91
	54	14.2083	2.73624E-001	2.73424E-001	0.00000E+000	...........	1368.00
	55	14.4667	2.73564E-001	2.73380E-001	0.00000E+000	...........	1368.00
	56	14.725	2.73501E-001	2.73308E-001	0.00000E+000	...........	1368.00
	57	14.9833	2.73439E-001	2.73242E-001	0.00000E+000	...........	1368.00
EOC	QUANT	0.2734389	Open Circuit (V)
PSTATMODEL	IQUANT	64	Pstat Model
PSTATSECTION	LABEL	IFC1010-32247	Pstat Section
PSTATSERIALNO	LABEL	32247	Pstat Serial Number
CTRLMODE	IQUANT	1	Control Mode
ELECTROMETER	IQUANT	0	RE=0 or CS=1
IESTAB	IQUANT	2	I/E Stability
CASPEED	IQUANT	4	Control Amp Speed
CONVENTION	IQUANT	1	Current Convention
ICHRANGE	IQUANT	2	Ich Range
ICHRANGEMODE	TOGGLE	F	Ich Auto Range
ICHOFFSETENABLE	TOGGLE	F	Ich Offset Enable
ICHOFFSET	QUANT	0	Ich Offset (V)
ICHFILTER	IQUANT	3	Ich Filter
VCHRANGE	IQUANT	2	Vch Range
VCHRANGEMODE	TOGGLE	F	Vch Auto Range
VCHOFFSETENABLE	TOGGLE	F	Vch Offset Enable
VCHOFFSET	QUANT	0	Vch Offset (V)
VCHFILTER	IQUANT	3	Vch Filter
IERANGELOWERLIMIT	IQUANT	4	I/E Range Lower Limit
IERANGEMODE	TOGGLE	F	I/E AutoRange
IERANGE	IQUANT	8	I/E Range
ACHSELECT	IQUANT	0	Ach Select
ACHRANGE	IQUANT	2	Ach Range
ACHOFFSETENABLE	TOGGLE	F	Ach Offset Enable
ACHOFFSET	QUANT	0	Ach Offset (V)
ACHFILTER	IQUANT	1	Ach Filter
SENSECABLEID	IQUANT	14	Sense Cable ID
PWRCABLEID	IQUANT	14	Power Cable ID
DCCALDATE	LABEL	11/18/2024	DC Calibration Date
ACCALDATE	LABEL	4/18/2022	AC Calibration Date
FRAMEWORKVERSION	LABEL	7.10.3	Framework Version
INSTRUMENTVERSION	LABEL	4.91	Instrument Version
COMMVERSION	LABEL	3.10	Communications Version
CPUPLDVERSION	LABEL	2.22	CPU PLD Version
CTRLPLDVERSION	LABEL	0.00	CTRL PLD Version
PSTATPLDVERSION	LABEL	0.00	PSTAT PLD Version
CURVE1	TABLE
	Pt	T	Vf	Im	Vu	Sig	Ach	IERange	Over	Temp
	#	s	V vs. Ref.	A	V	V	V	#	bits	deg C
	0	0.002	2.73450E-001	2.54314E-007	0.00000E+000	2.73429E-001	0.00000E+000	8	...........	1367.57
	3	0.008	2.44630E-001	-2.86672E-005	0.00000E+000	2.43437E-001	0.00000E+000	8	...........	1367.57
	6	0.014	2.14633E-001	-2.92736E-005	0.00000E+000	2.13444E-001	0.00000E+000	8	...........	1367.57
	9	0.02	1.84653E-001	-2.89389E-005	0.00000E+000	1.83452E-001	0.00000E+000	8	...........	1367.57
	12	0.026	1.54659E-001	-2.82419E-005	0.00000E+000	1.53460E-001	0.00000E+000	8	...........	1367.57
	15	0.032	1.24620E-001	-2.66113E-005	0.00000E+000	1.23417E-001	0.00000E+000	8	...........	1367.57
	18	0.038	9.46345E-002	-2.58094E-005	0.00000E+000	9.34251E-002	0.00000E+000	8	...........	1367.57
	21	0.044	6.46398E-002	-2.57493E-005	0.00000E+000	6.34327E-002	0.00000E+000	8	...........	1367.57
	24	0.05	3.46452E-002	-2.61405E-005	0.00000E+000	3.34404E-002	0.00000E+000	8	...........	1367.57
	27	0.056	4.65053E-003	-2.69268E-005	0.00000E+000	3.44809E-003	0.00000E+000	8	...........	1367.57
	30	0.062	-2.53882E-002	-2.82731E-005	0.00000E+000	-2.65442E-002	0.00000E+000	8	...........	1367.57
	33	0.068	-5.53676E-002	-2.93610E-005	0.00000E+000	-5.65366E-002	0.00000E+000	8	...........	1367.57
	36	0.074	-8.53928E-002	-2.99371E-005	0.00000E+000	-8.65789E-002	0.00000E+000	8	...........	1367.57
	39	0.08	-1.15376E-001	-3.07176E-005	0.00000E+000	-1.16571E-001	0.00000E+000	8	...........	1367.57
	42	0.086	-1.45364E-001	-3.15759E-005	0.00000E+000	-1.46564E-001	0.00000E+000	8	...........	1367.57
	45	0.092	-1.75360E-001	-3.25014E-005	0.00000E+000	-1.76556E-001	0.00000E+000	8	...........	1367.57
	48	0.098	-2.05358E-001	-3.34717E-005	0.00000E+000	-2.06548E-001	0.00000E+000	8	...........	1367.57
	51	0.104	-2.35359E-001	-3.43168E-005	0.00000E+000	-2.36540E-001	0.00000E+000	8	...........	1367.57
	54	0.11	-2.65406E-001	-3.47968E-005	0.00000E+000	-2.66583E-001	0.00000E+000	8	...........	1367.57
	57	0.116	-2.95408E-001	-3.46840E-005	0.00000E+000	-2.96575E-001	0.00000E+000	8	...........	1367.57
	60	0.122	-3.25397E-001	-3.39483E-005	0.00000E+000	-3.26567E-001	0.00000E+000	8	...........	1367.57
	63	0.128	-3.55382E-001	-3.27559E-005	0.00000E+000	-3.56560E-001	0.00000E+000	8	...........	1367.57
	66	0.134	-3.85379E-001	-3.12698E-005	0.00000E+000	-3.86552E-001	0.00000E+000	8	...........	1367.57
	69	0.14	-4.15380E-001	-2.95235E-005	0.00000E+000	-4.16544E-001	0.00000E+000	8	...........	1367.57
	72	0.146	-4.45371E-001	-2.75723E-005	0.00000E+000	-4.46537E-001	0.00000E+000	8	...........	1367.57
	75	0.152	-4.75428E-001	-2.55541E-005	0.00000E+000	-4.76579E-001	0.00000E+000	8	...........	1367.57
	78	0.158	-5.05415E-001	-2.35498E-005	0.00000E+000	-5.06571E-001	0.00000E+000	8	...........	1367.57
	81	0.164	-5.35386E-001	-2.16828E-005	0.00000E+000	-5.36564E-001	0.00000E+000	8	...........	1367.57
	84	0.17	-5.65401E-001	-2.00118E-005	0.00000E+000	-5.66556E-001	0.00000E+000	8	...........	1367.57
	87	0.176	-5.95390E-001	-1.85853E-005	0.00000E+000	-5.96548E-001	0.00000E+000	8	...........	1367.57
	90	0.182	-5.67754E-001	6.65356E-006	0.00000E+000	-5.66556E-001	0.00000E+000	8	...........	1367.57
	93	0.188	-5.37753E-001	9.65734E-006	0.00000E+000	-5.36564E-001	0.00000E+000	8	...........	1367.57
	96	0.194	-5.07768E-001	1.19603E-005	0.00000E+000	-5.06571E-001	0.00000E+000	8	...........	1367.57
	99	0.2	-4.77788E-001	1.41058E-005	0.00000E+000	-4.76579E-001	0.00000E+000	8	...........	1367.57
	102	0.206	-4.47735E-001	1.61923E-005	0.00000E+000	-4.46537E-001	0.00000E+000	8	...........	1367.57
	105	0.212	-4.17741E-001	1.80256E-005	0.00000E+000	-4.16544E-001	0.00000E+000	8	...........	1367.57
	108	0.218	-3.87747E-001	1.98262E-005	0.00000E+000	-3.86552E-001	0.00000E+000	8	...........	1367.57
	111	0.224	-3.57747E-001	2.15448E-005	0.00000E+000	-3.56560E-001	0.00000E+000	8	...........	1367.57
	114	0.23	-3.27739E-001	2.32055E-005	0.00000E+000	-3.26567E-001	0.00000E+000	8	...........	1367.57
	117	0.236	-2.97761E-001	2.47054E-005	0.00000E+000	-2.96575E-001	0.00000E+000	8	...........	1367.57
	120	0.242	-2.67766E-001	2.59789E-005	0.00000E+000	-2.66583E-001	0.00000E+000	8	...........	1367.57
	123	0.248	-2.37722E-001	2.70094E-005	0.00000E+000	-2.36540E-001	0.00000E+000	8	...........	1367.57
	126	0.254	-2.07735E-001	2.77441E-005	0.00000E+000	-2.06548E-001	0.00000E+000	8	...........	1367.57
	129	0.26	-1.77731E-001	2.82099E-005	0.00000E+000	-1.76556E-001	0.00000E+000	8	...........	1367.57
	132	0.266	-1.47734E-001	2.83616E-005	0.00000E+000	-1.46564E-001	0.00000E+000	8	...........	1367.57
	135	0.272	-1.17744E-001	2.81860E-005	0.00000E+000	-1.16571E-001	0.00000E+000	8	...........	1367.57
	138	0.278	-8.77595E-002	2.79295E-005	0.00000E+000	-8.65789E-002	0.00000E+000	8	...........	1367.57
	141	0.284	-5.77318E-002	2.79329E-005	0.00000E+000	-5.65366E-002	0.00000E+000	8	...........	1367.57
	144	0.29	-2.77329E-002	2.82241E-005	0.00000E+000	-2.65442E-002	0.00000E+000	8	...........	1367.57
	147	0.296	2.26937E-003	2.86013E-005	0.00000E+000	3.44809E-003	0.00000E+000	8	...........	1367.57
	150	0.302	3.22776E-002	2.82859E-005	0.00000E+000	3.34404E-002	0.00000E+000	8	...........	1367.57
	153	0.308	6.22731E-002	2.82696E-005	0.00000E+000	6.34327E-002	0.00000E+000	8	...........	1367.57
	156	0.314	9.22660E-002	2.86798E-005	0.00000E+000	9.34251E-002	0.00000E+000	8	...........	1367.57
	159	0.32	1.22265E-001	2.94522E-005	0.00000E+000	1.23417E-001	0.00000E+000	8	...........	1367.57
	162	0.326	1.52305E-001	3.06640E-005	0.00000E+000	1.53460E-001	0.00000E+000	8	...........	1367.57
	165	0.332	1.82310E-001	3.25687E-005	0.00000E+000	1.83452E-001	0.00000E+000	8	...........	1367.57
	168	0.338	2.12284E-001	3.58429E-005	0.00000E+000	2.13444E-001	0.00000E+000	8	...........	1367.57
	171	0.344	2.42297E-001	3.99458E-005	0.00000E+000	2.43437E-001	0.00000E+000	8	...........	1367.57
	174	0.35	2.72291E-001	4.15969E-005	0.00000E+000	2.73429E-001	0.00000E+000	8	...........	1367.57
	177	0.356	3.02309E-001	4.23948E-005	0.00000E+000	3.03421E-001	0.00000E+000	8	...........	1367.57
	180	0.362	3.32357E-001	4.23983E-005	0.00000E+000	3.33464E-001	0.00000E+000	8	...........	1367.57
	183	0.368	3.62337E-001	4.17240E-005	0.00000E+000	3.63456E-001	0.00000E+000	8	...........	1367.57
	186	0.374	3.92329E-001	4.10122E-005	0.00000E+000	3.93448E-001	0.00000E+000	8	...........	1367.57
	189	0.38	4.22340E-001	4.04415E-005	0.00000E+000	4.23441E-001	0.00000E+000	8	...........	1367.57
	192	0.386	4.52314E-001	3.90724E-005	0.00000E+000	4.53433E-001	0.00000E+000	8	...........	1367.57
	195	0.392	4.82316E-001	3.73054E-005	0.00000E+000	4.83425E-001	0.00000E+000	8	...........	1367.57
	198	0.398	5.12309E-001	3.55217E-005	0.00000E+000	5.13418E-001	0.00000E+000	8	...........	1367.57
	201	0.404	5.42363E-001	3.39313E-005	0.00000E+000	5.43460E-001	0.00000E+000	8	...........	1367.57
	204	0.41	5.72346E-001	3.25936E-005	0.00000E+000	5.73452E-001	0.00000E+000	8	...........	1367.57
	207	0.416	6.02342E-001	3.15639E-005	0.00000E+000	6.03445E-001	0.00000E+000	8	...........	1367.57
	210	0.422	6.32354E-001	3.07472E-005	0.00000E+000	6.33437E-001	0.00000E+000	8	...........	1367.57
	213	0.428	6.62347E-001	2.96540E-005	0.00000E+000	6.63429E-001	0.00000E+000	8	...........	1367.57
	216	0.434	6.92342E-001	2.80338E-005	0.00000E+000	6.93421E-001	0.00000E+000	8	...........	1367.57
	219	0.44	7.22393E-001	2.67555E-005	0.00000E+000	7.23464E-001	0.00000E+000	8	...........	1367.57
	222	0.446	7.52367E-001	2.60298E-005	0.00000E+000	7.53456E-001	0.00000E+000	8	...........	1367.57
	225	0.452	7.82366E-001	2.64046E-005	0.00000E+000	7.83448E-001	0.00000E+000	8	...........	1367.57
	227	0.456	8.02365E-001	2.76298E-005	0.00000E+000	8.03443E-001	0.00000E+000	8	...........	1367.57
CURVE2	TABLE
	Pt	T	Vf	Im	Vu	Sig	Ach	IERange	Over	Temp
	#	s	V vs. Ref.	A	V	V	V	#	bits	deg C
	228	0.458	7.91685E-001	-3.30863E-006	0.00000E+000	7.89997E-001	0.00000E+000	8	...........	1367.57
	231	0.464	7.61272E-001	-9.43305E-006	0.00000E+000	7.60004E-001	0.00000E+000	8	...........	1367.57
	234	0.47	7.31301E-001	-1.35764E-005	0.00000E+000	7.30012E-001	0.00000E+000	8	...........	1367.57
	237	0.476	7.01295E-001	-1.68913E-005	0.00000E+000	7.00020E-001	0.00000E+000	8	...........	1367.57
	240	0.482	6.71263E-001	-2.01364E-005	0.00000E+000	6.69977E-001	0.00000E+000	8	...........	1367.57
	243	0.488	6.41254E-001	-2.29350E-005	0.00000E+000	6.39985E-001	0.00000E+000	8	...........	1367.57
	246	0.494	6.11260E-001	-2.47196E-005	0.00000E+000	6.09993E-001	0.00000E+000	8	...........	1367.57
	249	0.5	5.81268E-001	-2.59915E-005	0.00000E+000	5.80001E-001	0.00000E+000	8	...........	1367.57
	252	0.506	5.51259E-001	-2.73756E-005	0.00000E+000	5.50008E-001	0.00000E+000	8	...........	1367.57
	255	0.512	5.21250E-001	-2.90495E-005	0.00000E+000	5.20016E-001	0.00000E+000	8	...........	1367.57
	258	0.518	4.91281E-001	-3.11025E-005	0.00000E+000	4.90024E-001	0.00000E+000	8	...........	1367.57
	261	0.524	4.61229E-001	-3.35058E-005	0.00000E+000	4.59981E-001	0.00000E+000	8	...........	1367.57
	264	0.53	4.31252E-001	-3.59975E-005	0.00000E+000	4.29989E-001	0.00000E+000	8	...........	1367.57
	267	0.536	4.01248E-001	-3.83741E-005	0.00000E+000	3.99997E-001	0.00000E+000	8	...........	1367.57
	270	0.542	3.71260E-001	-4.01620E-005	0.00000E+000	3.70004E-001	0.00000E+000	8	...........	1367.57
	273	0.548	3.41257E-001	-4.03507E-005	0.00000E+000	3.40012E-001	0.00000E+000	8	...........	1367.57
	276	0.554	3.11254E-001	-4.03738E-005	0.00000E+000	3.10020E-001	0.00000E+000	8	...........	1367.57
	279	0.56	2.81202E-001	-4.02337E-005	0.00000E+000	2.79977E-001	0.00000E+000	8	...........	1367.57
	282	0.566	2.51204E-001	-3.92478E-005	0.00000E+000	2.49985E-001	0.00000E+000	8	...........	1367.57
	285	0.572	2.21189E-001	-3.85244E-005	0.00000E+000	2.19993E-001	0.00000E+000	8	...........	1367.57
	288	0.578	1.91209E-001	-3.66907E-005	0.00000E+000	1.90000E-001	0.00000E+000	8	...........	1367.57
	291	0.584	1.61212E-001	-3.30996E-005	0.00000E+000	1.60008E-001	0.00000E+000	8	...........	1367.57
	294	0.59	1.31237E-001	-3.04019E-005	0.00000E+000	1.30016E-001	0.00000E+000	8	...........	1367.57
	297	0.596	1.01222E-001	-2.89327E-005	0.00000E+000	1.00023E-001	0.00000E+000	8	...........	1367.57
	300	0.602	7.11747E-002	-2.80973E-005	0.00000E+000	6.99811E-002	0.00000E+000	8	...........	1367.57
	303	0.608	4.11775E-002	-2.77556E-005	0.00000E+000	3.99887E-002	0.00000E+000	8	...........	1367.57
	306	0.614	1.11693E-002	-2.78846E-005	0.00000E+000	9.99641E-003	0.00000E+000	8	...........	1367.57
	309	0.62	-1.88508E-002	-2.85943E-005	0.00000E+000	-1.99959E-002	0.00000E+000	8	...........	1367.57
	312	0.626	-4.88404E-002	-2.91583E-005	0.00000E+000	-4.99882E-002	0.00000E+000	8	...........	1367.57
	315	0.632	-7.88418E-002	-2.92692E-005	0.00000E+000	-7.99806E-002	0.00000E+000	8	...........	1367.57
[...]
	688	1.378	-1.91190E-001	2.81221E-005	0.00000E+000	-1.90002E-001	0.00000E+000	8	...........	1367.91
	691	1.384	-1.61191E-001	2.84191E-005	0.00000E+000	-1.60010E-001	0.00000E+000	8	...........	1367.91
	694	1.39	-1.31212E-001	2.83930E-005	0.00000E+000	-1.30018E-001	0.00000E+000	8	...........	1367.91
	697	1.396	-1.01174E-001	2.82311E-005	0.00000E+000	-9.99754E-002	0.00000E+000	8	...........	1367.91
	700	1.402	-7.11745E-002	2.79727E-005	0.00000E+000	-6.99831E-002	0.00000E+000	8	...........	1367.91
	703	1.408	-4.11874E-002	2.80984E-005	0.00000E+000	-3.99908E-002	0.00000E+000	8	...........	1367.91
	706	1.414	-1.11809E-002	2.87042E-005	0.00000E+000	-9.99847E-003	0.00000E+000	8	...........	1367.91
	709	1.42	1.88307E-002	2.86809E-005	0.00000E+000	1.99939E-002	0.00000E+000	8	...........	1367.91
	712	1.426	4.88380E-002	2.84881E-005	0.00000E+000	4.99862E-002	0.00000E+000	8	...........	1367.91
	715	1.432	7.88446E-002	2.87265E-005	0.00000E+000	7.99785E-002	0.00000E+000	8	...........	1367.91
	718	1.438	1.08888E-001	2.93484E-005	0.00000E+000	1.10021E-001	0.00000E+000	8	...........	1367.91
	721	1.444	1.38879E-001	3.03237E-005	0.00000E+000	1.40013E-001	0.00000E+000	8	...........	1367.91
	724	1.45	1.68871E-001	3.18228E-005	0.00000E+000	1.70005E-001	0.00000E+000	8	...........	1367.91
	727	1.456	1.98860E-001	3.43281E-005	0.00000E+000	1.99998E-001	0.00000E+000	8	...........	1367.91
	730	1.462	2.28859E-001	3.86608E-005	0.00000E+000	2.29990E-001	0.00000E+000	8	...........	1367.91
	733	1.468	2.58854E-001	4.22227E-005	0.00000E+000	2.59982E-001	0.00000E+000	8	...........	1367.91
	736	1.474	2.88899E-001	4.34293E-005	0.00000E+000	2.90025E-001	0.00000E+000	8	...........	1367.91
	739	1.48	3.18907E-001	4.34019E-005	0.00000E+000	3.20017E-001	0.00000E+000	8	...........	1367.91
	742	1.486	3.48897E-001	4.29967E-005	0.00000E+000	3.50009E-001	0.00000E+000	8	...........	1367.91
	745	1.492	3.78875E-001	4.22524E-005	0.00000E+000	3.80002E-001	0.00000E+000	8	...........	1367.91
	748	1.498	4.08885E-001	4.16069E-005	0.00000E+000	4.09994E-001	0.00000E+000	8	...........	1367.91
	751	1.504	4.38885E-001	4.06477E-005	0.00000E+000	4.39986E-001	0.00000E+000	8	...........	1367.91
	754	1.51	4.68872E-001	3.87590E-005	0.00000E+000	4.69979E-001	0.00000E+000	8	...........	1367.91
	757	1.516	4.98932E-001	3.67470E-005	0.00000E+000	5.00021E-001	0.00000E+000	8	...........	1367.91
	760	1.522	5.28918E-001	3.47854E-005	0.00000E+000	5.30013E-001	0.00000E+000	8	...........	1367.91
	763	1.528	5.58904E-001	3.30927E-005	0.00000E+000	5.60006E-001	0.00000E+000	8	...........	1367.91
	766	1.534	5.88911E-001	3.17835E-005	0.00000E+000	5.89998E-001	0.00000E+000	8	...........	1367.91
	769	1.54	6.18909E-001	3.07625E-005	0.00000E+000	6.19990E-001	0.00000E+000	8	...........	1367.91
	772	1.546	6.48905E-001	2.98179E-005	0.00000E+000	6.49983E-001	0.00000E+000	8	...........	1367.91
	775	1.552	6.78957E-001	2.84120E-005	0.00000E+000	6.80025E-001	0.00000E+000	8	...........	1367.91
	778	1.558	7.08953E-001	2.67827E-005	0.00000E+000	7.10017E-001	0.00000E+000	8	...........	1367.91
	781	1.564	7.38923E-001	2.57702E-005	0.00000E+000	7.40010E-001	0.00000E+000	8	...........	1367.91
	784	1.57	7.68943E-001	2.55783E-005	0.00000E+000	7.70002E-001	0.00000E+000	8	...........	1367.91
	787	1.576	7.98930E-001	2.68479E-005	0.00000E+000	7.99994E-001	0.00000E+000	8	...........	1367.91
CURVE4	TABLE
	Pt	T	Vf	Im	Vu	Sig	Ach	IERange	Over	Temp
	#	s	V vs. Ref.	A	V	V	V	#	bits	deg C
	788	1.578	7.91297E-001	5.10271E-007	0.00000E+000	7.89997E-001	0.00000E+000	8	...........	1367.91
	789	1.58	7.81265E-001	-4.56321E-006	0.00000E+000	7.79999E-001	0.00000E+000	8	...........	1367.91
	790	1.582	7.71300E-001	-7.43394E-006	0.00000E+000	7.70002E-001	0.00000E+000	8	...........	1367.91
	791	1.584	7.61296E-001	-9.46174E-006	0.00000E+000	7.60004E-001	0.00000E+000	8	...........	1367.91
	792	1.586	7.51284E-001	-1.10641E-005	0.00000E+000	7.50007E-001	0.00000E+000	8	...........	1367.91
	793	1.588	7.41284E-001	-1.24401E-005	0.00000E+000	7.40010E-001	0.00000E+000	8	...........	1367.91
	794	1.59	7.31309E-001	-1.36640E-005	0.00000E+000	7.30012E-001	0.00000E+000	8	...........	1367.91
	795	1.592	7.21304E-001	-1.48122E-005	0.00000E+000	7.20015E-001	0.00000E+000	8	...........	1367.91
	796	1.594	7.11293E-001	-1.58962E-005	0.00000E+000	7.10017E-001	0.00000E+000	8	...........	1367.91
	797	1.596	7.01307E-001	-1.69942E-005	0.00000E+000	7.00020E-001	0.00000E+000	8	...........	1367.91
	798	1.598	6.91291E-001	-1.80664E-005	0.00000E+000	6.90022E-001	0.00000E+000	8	...........	1367.91
	799	1.6	6.81315E-001	-1.91262E-005	0.00000E+000	6.80025E-001	0.00000E+000	8	...........	1367.91
	800	1.602	6.71263E-001	-2.02601E-005	0.00000E+000	6.69977E-001	0.00000E+000	8	...........	1367.91
	801	1.604	6.61261E-001	-2.12170E-005	0.00000E+000	6.59980E-001	0.00000E+000	8	...........	1367.91
	802	1.606	6.51258E-001	-2.21659E-005	0.00000E+000	6.49983E-001	0.00000E+000	8	...........	1367.91
	803	1.608	6.41265E-001	-2.30527E-005	0.00000E+000	6.39985E-001	0.00000E+000	8	...........	1367.91
	804	1.61	6.31269E-001	-2.37740E-005	0.00000E+000	6.29988E-001	0.00000E+000	8	...........	1367.91
	805	1.612	6.21257E-001	-2.43671E-005	0.00000E+000	6.19990E-001	0.00000E+000	8	...........	1367.91
	806	1.614	6.11269E-001	-2.48374E-005	0.00000E+000	6.09993E-001	0.00000E+000	8	...........	1367.91
	807	1.616	6.01272E-001	-2.52889E-005	0.00000E+000	5.99995E-001	0.00000E+000	8	...........	1367.91
	808	1.618	5.91278E-001	-2.57081E-005	0.00000E+000	5.89998E-001	0.00000E+000	8	...........	1367.91
	809	1.62	5.81281E-001	-2.61527E-005	0.00000E+000	5.80001E-001	0.00000E+000	8	...........	1367.91
	810	1.622	5.71282E-001	-2.66113E-005	0.00000E+000	5.70003E-001	0.00000E+000	8	...........	1367.91
	811	1.624	5.61274E-001	-2.70885E-005	0.00000E+000	5.60006E-001	0.00000E+000	8	...........	1367.91
	812	1.626	5.51279E-001	-2.75970E-005	0.00000E+000	5.50008E-001	0.00000E+000	8	...........	1367.91
	813	1.628	5.41281E-001	-2.81321E-005	0.00000E+000	5.40011E-001	0.00000E+000	8	...........	1367.91
	814	1.63	5.31274E-001	-2.87208E-005	0.00000E+000	5.30013E-001	0.00000E+000	8	...........	1367.91
	815	1.632	5.21282E-001	-2.93539E-005	0.00000E+000	5.20016E-001	0.00000E+000	8	...........	1367.91
	816	1.634	5.11265E-001	-3.00430E-005	0.00000E+000	5.10018E-001	0.00000E+000	8	...........	1367.91
	817	1.636	5.01292E-001	-3.07406E-005	0.00000E+000	5.00021E-001	0.00000E+000	8	...........	1367.91
	818	1.638	4.91312E-001	-3.15334E-005	0.00000E+000	4.90024E-001	0.00000E+000	8	...........	1367.91
	819	1.64	4.81251E-001	-3.24678E-005	0.00000E+000	4.79976E-001	0.00000E+000	8	...........	1367.91
	820	1.642	4.71230E-001	-3.32258E-005	0.00000E+000	4.69979E-001	0.00000E+000	8	...........	1367.91
	821	1.644	4.61238E-001	-3.40725E-005	0.00000E+000	4.59981E-001	0.00000E+000	8	...........	1367.91
	822	1.646	4.51233E-001	-3.49351E-005	0.00000E+000	4.49984E-001	0.00000E+000	8	...........	1367.91
	823	1.648	4.41235E-001	-3.58296E-005	0.00000E+000	4.39986E-001	0.00000E+000	8	...........	1367.91
	824	1.65	4.31238E-001	-3.67024E-005	0.00000E+000	4.29989E-001	0.00000E+000	8	...........	1367.91
	825	1.652	4.21237E-001	-3.75772E-005	0.00000E+000	4.19991E-001	0.00000E+000	8	...........	1367.91
	826	1.654	4.11242E-001	-3.84236E-005	0.00000E+000	4.09994E-001	0.00000E+000	8	...........	1367.91
	827	1.656	4.01254E-001	-3.92051E-005	0.00000E+000	3.99997E-001	0.00000E+000	8	...........	1367.91
	828	1.658	3.91241E-001	-3.99672E-005	0.00000E+000	3.89999E-001	0.00000E+000	8	...........	1367.91
	829	1.66	3.81244E-001	-4.06018E-005	0.00000E+000	3.80002E-001	0.00000E+000	8	...........	1367.91
	830	1.662	3.71234E-001	-4.10102E-005	0.00000E+000	3.70004E-001	0.00000E+000	8	...........	1367.91
	831	1.664	3.61240E-001	-4.11447E-005	0.00000E+000	3.60007E-001	0.00000E+000	8	...........	1367.91
	832	1.666	3.51248E-001	-4.11153E-005	0.00000E+000	3.50009E-001	0.00000E+000	8	...........	1367.91
	833	1.668	3.41247E-001	-4.10768E-005	0.00000E+000	3.40012E-001	0.00000E+000	8	...........	1367.91
	834	1.67	3.31242E-001	-4.10954E-005	0.00000E+000	3.30014E-001	0.00000E+000	8	...........	1367.91
	835	1.672	3.21261E-001	-4.11094E-005	0.00000E+000	3.20017E-001	0.00000E+000	8	...........	1367.91
	836	1.674	3.11257E-001	-4.11046E-005	0.00000E+000	3.10020E-001	0.00000E+000	8	...........	1367.91
	837	1.676	3.01260E-001	-4.10368E-005	0.00000E+000	3.00022E-001	0.00000E+000	8	...........	1367.91
	838	1.678	2.91267E-001	-4.09668E-005	0.00000E+000	2.90025E-001	0.00000E+000	8	...........	1367.91
	839	1.68	2.81224E-001	-4.09584E-005	0.00000E+000	2.79977E-001	0.00000E+000	8	...........	1367.91
	840	1.682	2.71220E-001	-4.05923E-005	0.00000E+000	2.69980E-001	0.00000E+000	8	...........	1367.91