File: Test_Data_Files/20250509_S_IF0011_IIA42_E05_PBSair_PEDOT_CV5000.DTA
EXPLAIN
TAG	CV
TITLE	LABEL	CV5000	Test Identifier
DATE	LABEL	5/9/2025	Date
TIME	LABEL	15:09:06	Time
NOTES	NOTES	1	Notes...

PSTAT	PSTAT	REF600P-43058	Potentiostat
VINIT	POTEN	0.00000E+000	T	Initial E (V)
VLIMIT1	POTEN	-9.00000E-001	F	Scan Limit 1 (V)
VLIMIT2	POTEN	6.00000E-001	F	Scan Limit 2 (V)
VFINAL	POTEN	0.00000E+000	T	Final E (V)
SCANRATE	QUANT	4.99999E+003	Scan Rate (mV/s)
STEPSIZE	QUANT	1.00000E+001	Step Size (mV)
CYCLES	IQUANT	3	Cycles (#)
IMODE	SELECTOR	1	I/E Range Mode
IRANGE	QUANT	1.00000E-002	Max Current (mA)
AREA	QUANT	1.00000E+000	Sample Area (cm^2)
EQDELAY	QUANT	5.00000E+000	Equil. Time (s)
IRCOMP	SELECTOR	0	IRComp
PFCOR	QUANT	5.00000E+001	PF Corr. (ohm)
SAMPLINGMODE	SELECTOR	2	Sampling Mode
EOC	QUANT	0.1578694	Open Circuit (V)
ELECTRODETYPE	SELECTOR	0	Electrode Type
STRIPPING	TOGGLE	F	Used for Stripping
SEQUENCER	TOGGLE	TRUE	Run as Sequence
PSTATMODEL	IQUANT	7	Pstat Model
PSTATSECTION	LABEL	REF600P-43058	Pstat Section
PSTATSERIALNO	LABEL	43058	Pstat Serial Number
CTRLMODE	IQUANT	1	Control Mode
ELECTROMETER	IQUANT	0	RE=0 or CS=1
IESTAB	IQUANT	2	I/E Stability
CASPEED	IQUANT	4	Control Amp Speed
CONVENTION	IQUANT	1	Current Convention
ICHRANGE	IQUANT	2	Ich Range
ICHRANGEMODE	TOGGLE	F	Ich Auto Range
ICHOFFSETENABLE	TOGGLE	F	Ich Offset Enable
ICHOFFSET	QUANT	0	Ich Offset (V)
ICHFILTER	IQUANT	2	Ich Filter
VCHRANGE	IQUANT	2	Vch Range
VCHRANGEMODE	TOGGLE	F	Vch Auto Range
VCHOFFSETENABLE	TOGGLE	F	Vch Offset Enable
VCHOFFSET	QUANT	0	Vch Offset (V)
VCHFILTER	IQUANT	2	Vch Filter
ACHRANGE	IQUANT	2	Ach Range
ACHOFFSETENABLE	TOGGLE	F	Ach Offset Enable
ACHOFFSET	QUANT	0	Ach Offset (V)
ACHFILTER	IQUANT	1	Ach Filter
IERANGELOWERLIMIT	IQUANT	1	I/E Range Lower Limit
IERANGEMODE	TOGGLE	F	I/E AutoRange
IERANGE	IQUANT	7	I/E Range
POSFEEDENABLE	TOGGLE	F	Positive Feedback IR Comp
POSFEEDRESISTANCE	QUANT	0	Positive Feedback Resistance (ohm)
ACHSELECT	IQUANT	4	Ach Select
SENSECABLEID	IQUANT	7	Sense Cable ID
PWRCABLEID	IQUANT	7	Power Cable ID
DCCALDATE	LABEL	5/8/2025	DC Calibration Date
ACCALDATE	LABEL	5/8/2025	AC Calibration Date
THERMOSELECT	IQUANT	1	Thermo Select
FRAMEWORKVERSION	LABEL	7.10.4	Framework Version
INSTRUMENTVERSION	LABEL	5.01	Instrument Version
COMMVERSION	LABEL	5.10	Communications Version
CPUPLDVERSION	LABEL	6.00	CPU PLD Version
CTRLPLDVERSION	LABEL	3.21	CTRL PLD Version
PSTATPLDVERSION	LABEL	0.00	PSTAT PLD Version
CURVE1	TABLE
	Pt	T	Vf	Im	Vu	Sig	Ach	IERange	Over	Temp
	#	s	V vs. Ref.	A	V	V	V	#	bits	deg C
	0	0.002	1.57863E-001	8.61365E-009	0.00000E+000	1.57850E-001	1.41953E-003	7	...........	-327.66
	3	0.008	1.28689E-001	-1.38989E-006	0.00000E+000	1.27850E-001	1.41953E-003	7	...........	-327.66
	6	0.014	9.86799E-002	-1.98892E-006	0.00000E+000	9.78500E-002	1.45747E-003	7	...........	-327.66
	9	0.02	6.87264E-002	-2.42398E-006	0.00000E+000	6.78500E-002	1.46609E-003	7	...........	-327.66
	12	0.026	3.87221E-002	-2.76747E-006	0.00000E+000	3.78500E-002	1.45574E-003	7	...........	-327.66
	15	0.032	8.69627E-003	-3.05082E-006	0.00000E+000	7.84999E-003	1.45229E-003	7	...........	-327.66
	18	0.038	-2.13529E-002	-3.28994E-006	0.00000E+000	-2.21500E-002	1.45057E-003	7	...........	-327.66
	21	0.044	-5.13055E-002	-3.49798E-006	0.00000E+000	-5.21500E-002	1.46436E-003	7	...........	-327.66
	24	0.05	-8.13193E-002	-3.68356E-006	0.00000E+000	-8.21500E-002	1.39712E-003	7	...........	-327.66
	27	0.056	-1.11295E-001	-3.85246E-006	0.00000E+000	-1.12150E-001	1.46609E-003	7	...........	-327.66
	30	0.062	-1.41287E-001	-4.00961E-006	0.00000E+000	-1.42150E-001	1.42126E-003	7	...........	-327.66
	33	0.068	-1.71268E-001	-4.15918E-006	0.00000E+000	-1.72150E-001	1.40229E-003	7	...........	-327.66
	36	0.074	-2.01344E-001	-4.30211E-006	0.00000E+000	-2.02150E-001	1.45229E-003	7	...........	-327.66
	39	0.08	-2.31293E-001	-4.43892E-006	0.00000E+000	-2.32150E-001	1.44367E-003	7	...........	-327.66
	42	0.086	-2.61266E-001	-4.56896E-006	0.00000E+000	-2.62150E-001	1.41609E-003	7	...........	-327.66
	45	0.092	-2.91221E-001	-4.68803E-006	0.00000E+000	-2.92150E-001	1.39712E-003	7	...........	-327.66
	48	0.098	-3.21268E-001	-4.79952E-006	0.00000E+000	-3.22150E-001	1.39022E-003	7	...........	-327.66
	51	0.104	-3.51292E-001	-4.89669E-006	0.00000E+000	-3.52150E-001	1.44712E-003	7	...........	-327.66
	54	0.11	-3.81295E-001	-4.97898E-006	0.00000E+000	-3.82150E-001	1.41091E-003	7	...........	-327.66
	57	0.116	-4.11239E-001	-5.04685E-006	0.00000E+000	-4.12150E-001	1.37298E-003	7	...........	-327.66
	60	0.122	-4.41276E-001	-5.09850E-006	0.00000E+000	-4.42150E-001	1.43333E-003	7	...........	-327.66
	63	0.128	-4.71201E-001	-5.13155E-006	0.00000E+000	-4.72150E-001	1.44195E-003	7	...........	-327.66
	66	0.134	-5.01236E-001	-5.14895E-006	0.00000E+000	-5.02150E-001	1.37471E-003	7	...........	-327.66
	69	0.14	-5.31251E-001	-5.14743E-006	0.00000E+000	-5.32150E-001	1.44367E-003	7	...........	-327.66
	72	0.146	-5.61262E-001	-5.11345E-006	0.00000E+000	-5.62150E-001	1.43505E-003	7	...........	-327.66
	75	0.152	-5.91293E-001	-5.03169E-006	0.00000E+000	-5.92150E-001	1.40747E-003	7	...........	-327.66
	78	0.158	-6.21228E-001	-4.86871E-006	0.00000E+000	-6.22150E-001	1.42126E-003	7	...........	-327.66
	81	0.164	-6.51164E-001	-4.59248E-006	0.00000E+000	-6.52150E-001	1.40747E-003	7	...........	-327.66
	84	0.17	-6.81206E-001	-4.17828E-006	0.00000E+000	-6.82150E-001	1.42126E-003	7	...........	-327.66
	87	0.176	-7.11247E-001	-3.64302E-006	0.00000E+000	-7.12150E-001	1.51091E-003	7	...........	-327.66
	90	0.182	-7.41290E-001	-3.03787E-006	0.00000E+000	-7.42150E-001	1.37126E-003	7	...........	-327.66
	93	0.188	-7.71250E-001	-2.44605E-006	0.00000E+000	-7.72150E-001	1.44195E-003	7	...........	-327.66
	96	0.194	-8.01252E-001	-1.92748E-006	0.00000E+000	-8.02150E-001	1.43160E-003	7	...........	-327.66
	99	0.2	-8.31228E-001	-1.53560E-006	0.00000E+000	-8.32150E-001	1.41091E-003	7	...........	-327.66
	102	0.206	-8.61260E-001	-1.26123E-006	0.00000E+000	-8.62150E-001	1.40919E-003	7	...........	-327.66
	105	0.212	-8.91231E-001	-1.06850E-006	0.00000E+000	-8.92150E-001	1.40229E-003	7	...........	-327.66
	108	0.218	-8.82741E-001	-8.09550E-007	0.00000E+000	-8.82150E-001	1.49540E-003	7	...........	-327.66
	111	0.224	-8.52805E-001	-6.42165E-007	0.00000E+000	-8.52150E-001	1.42643E-003	7	...........	-327.66
	114	0.23	-8.22840E-001	-5.25804E-007	0.00000E+000	-8.22150E-001	1.37815E-003	7	...........	-327.66
	117	0.236	-7.92810E-001	-4.20635E-007	0.00000E+000	-7.92150E-001	1.47126E-003	7	...........	-327.66
	120	0.242	-7.62798E-001	-3.06153E-007	0.00000E+000	-7.62150E-001	1.45057E-003	7	...........	-327.66
	123	0.248	-7.32823E-001	-1.65393E-007	0.00000E+000	-7.32150E-001	1.46781E-003	7	...........	-327.66
	126	0.254	-7.02789E-001	1.65975E-008	0.00000E+000	-7.02150E-001	1.41091E-003	7	...........	-327.66
	129	0.26	-6.72846E-001	2.61148E-007	0.00000E+000	-6.72150E-001	1.40057E-003	7	...........	-327.66
	132	0.266	-6.42874E-001	5.95780E-007	0.00000E+000	-6.42150E-001	1.43160E-003	7	...........	-327.66
	135	0.272	-6.12849E-001	1.05748E-006	0.00000E+000	-6.12150E-001	1.44022E-003	7	...........	-327.66
	138	0.278	-5.82866E-001	1.68567E-006	0.00000E+000	-5.82150E-001	1.42126E-003	7	...........	-327.66
	141	0.284	-5.52861E-001	2.51364E-006	0.00000E+000	-5.52150E-001	1.39884E-003	7	...........	-327.66
	144	0.29	-5.22918E-001	3.53142E-006	0.00000E+000	-5.22150E-001	1.42643E-003	7	...........	-327.66
	147	0.296	-4.92869E-001	4.60415E-006	0.00000E+000	-4.92150E-001	1.45057E-003	7	...........	-327.66
	150	0.302	-4.62905E-001	5.37629E-006	0.00000E+000	-4.62150E-001	1.44367E-003	7	...........	-327.66
	153	0.308	-4.32907E-001	5.58320E-006	0.00000E+000	-4.32150E-001	1.47988E-003	7	...........	-327.66
	156	0.314	-4.02946E-001	5.37859E-006	0.00000E+000	-4.02150E-001	1.39367E-003	7	...........	-327.66
	159	0.32	-3.72850E-001	5.07198E-006	0.00000E+000	-3.72150E-001	1.45402E-003	7	...........	-327.66
	162	0.326	-3.42955E-001	4.82448E-006	0.00000E+000	-3.42150E-001	1.39367E-003	7	...........	-327.66
	165	0.332	-3.12921E-001	4.66128E-006	0.00000E+000	-3.12150E-001	1.42298E-003	7	...........	-327.66
	168	0.338	-2.82935E-001	4.55966E-006	0.00000E+000	-2.82150E-001	1.40229E-003	7	...........	-327.66
	171	0.344	-2.52887E-001	4.49759E-006	0.00000E+000	-2.52150E-001	1.39712E-003	7	...........	-327.66
	174	0.35	-2.22910E-001	4.45551E-006	0.00000E+000	-2.22150E-001	1.42298E-003	7	...........	-327.66
	177	0.356	-1.92940E-001	4.42444E-006	0.00000E+000	-1.92150E-001	1.42471E-003	7	...........	-327.66
	180	0.362	-1.62967E-001	4.40059E-006	0.00000E+000	-1.62150E-001	1.50747E-003	7	...........	-327.66
	183	0.368	-1.32928E-001	4.38157E-006	0.00000E+000	-1.32150E-001	1.46091E-003	7	...........	-327.66
	186	0.374	-1.02961E-001	4.36686E-006	0.00000E+000	-1.02150E-001	1.37126E-003	7	...........	-327.66
	189	0.38	-7.29511E-002	4.35226E-006	0.00000E+000	-7.21500E-002	1.46264E-003	7	...........	-327.66
	192	0.386	-4.29313E-002	4.33829E-006	0.00000E+000	-4.21500E-002	1.49884E-003	7	...........	-327.66
	195	0.392	-1.29072E-002	4.31953E-006	0.00000E+000	-1.21500E-002	1.43678E-003	7	...........	-327.66
	198	0.398	1.70704E-002	4.29735E-006	0.00000E+000	1.78500E-002	1.41953E-003	7	...........	-327.66
	201	0.404	4.70833E-002	4.27163E-006	0.00000E+000	4.78500E-002	1.37126E-003	7	...........	-327.66
	204	0.41	7.70644E-002	4.24000E-006	0.00000E+000	7.78500E-002	1.43850E-003	7	...........	-327.66
	207	0.416	1.07091E-001	4.20562E-006	0.00000E+000	1.07850E-001	1.47471E-003	7	...........	-327.66
	210	0.422	1.37094E-001	4.16940E-006	0.00000E+000	1.37850E-001	1.43160E-003	7	...........	-327.66
	213	0.428	1.67096E-001	4.13362E-006	0.00000E+000	1.67850E-001	1.43333E-003	7	...........	-327.66
	216	0.434	1.97070E-001	4.09512E-006	0.00000E+000	1.97850E-001	1.45229E-003	7	...........	-327.66
	219	0.44	2.27101E-001	4.06105E-006	0.00000E+000	2.27850E-001	1.36781E-003	7	...........	-327.66
	222	0.446	2.57056E-001	4.02887E-006	0.00000E+000	2.57850E-001	1.45057E-003	7	...........	-327.66
	225	0.452	2.87021E-001	3.99997E-006	0.00000E+000	2.87850E-001	1.44022E-003	7	...........	-327.66
	228	0.458	3.17034E-001	3.97850E-006	0.00000E+000	3.17850E-001	1.44712E-003	7	...........	-327.66
	231	0.464	3.47124E-001	3.96584E-006	0.00000E+000	3.47850E-001	1.52643E-003	7	...........	-327.66
	234	0.47	3.77064E-001	3.96293E-006	0.00000E+000	3.77850E-001	1.41953E-003	7	...........	-327.66
	237	0.476	4.07044E-001	3.97203E-006	0.00000E+000	4.07850E-001	1.45229E-003	7	...........	-327.66
	240	0.482	4.36983E-001	3.99347E-006	0.00000E+000	4.37850E-001	1.47298E-003	7	...........	-327.66
	243	0.488	4.67045E-001	4.02987E-006	0.00000E+000	4.67850E-001	1.41609E-003	7	...........	-327.66
	246	0.494	4.97010E-001	4.08131E-006	0.00000E+000	4.97850E-001	1.42815E-003	7	...........	-327.66
	249	0.5	5.27073E-001	4.14823E-006	0.00000E+000	5.27850E-001	1.44712E-003	7	...........	-327.66
	252	0.506	5.57018E-001	4.22940E-006	0.00000E+000	5.57850E-001	1.46953E-003	7	...........	-327.66
	255	0.512	5.87054E-001	4.32779E-006	0.00000E+000	5.87850E-001	1.41609E-003	7	...........	-327.66
	256	0.514	5.97013E-001	4.36271E-006	0.00000E+000	5.97850E-001	1.42126E-003	7	...........	-327.66
CURVE2	TABLE
	Pt	T	Vf	Im	Vu	Sig	Ach	IERange	Over	Temp
	#	s	V vs. Ref.	A	V	V	V	#	bits	deg C
	257	0.516	5.90582E-001	3.07200E-006	0.00000E+000	5.90000E-001	1.45747E-003	7	...........	-327.66
	260	0.522	5.60776E-001	1.10700E-006	0.00000E+000	5.60000E-001	1.49022E-003	7	...........	-327.66
	263	0.528	5.30764E-001	-4.61229E-009	0.00000E+000	5.30000E-001	1.43678E-003	7	...........	-327.66
	266	0.534	5.00808E-001	-8.06601E-007	0.00000E+000	5.00000E-001	1.41609E-003	7	...........	-327.66
	269	0.54	4.70792E-001	-1.41237E-006	0.00000E+000	4.70000E-001	1.38505E-003	7	...........	-327.66
	272	0.546	4.40757E-001	-1.88101E-006	0.00000E+000	4.40000E-001	1.38850E-003	7	...........	-327.66
	275	0.552	4.10778E-001	-2.24871E-006	0.00000E+000	4.10000E-001	1.36609E-003	7	...........	-327.66
	278	0.558	3.80803E-001	-2.54413E-006	0.00000E+000	3.80000E-001	1.47643E-003	7	...........	-327.66
	281	0.564	3.50814E-001	-2.78823E-006	0.00000E+000	3.50000E-001	1.42126E-003	7	...........	-327.66
	284	0.57	3.20808E-001	-2.99343E-006	0.00000E+000	3.20000E-001	1.46609E-003	7	...........	-327.66
	287	0.576	2.90795E-001	-3.16882E-006	0.00000E+000	2.90000E-001	1.45574E-003	7	...........	-327.66
	290	0.582	2.60808E-001	-3.32534E-006	0.00000E+000	2.60000E-001	1.44367E-003	7	...........	-327.66
	293	0.588	2.30797E-001	-3.46560E-006	0.00000E+000	2.30000E-001	1.40747E-003	7	...........	-327.66
	296	0.594	2.00794E-001	-3.59260E-006	0.00000E+000	2.00000E-001	1.46436E-003	7	...........	-327.66
	299	0.6	1.70878E-001	-3.71057E-006	0.00000E+000	1.70000E-001	1.48160E-003	7	...........	-327.66
	302	0.606	1.40907E-001	-3.81913E-006	0.00000E+000	1.40000E-001	1.45402E-003	7	...........	-327.66
	305	0.612	1.10832E-001	-3.91885E-006	0.00000E+000	1.10000E-001	1.48505E-003	7	...........	-327.66
	308	0.618	8.08195E-002	-4.01180E-006	0.00000E+000	8.00000E-002	1.43505E-003	7	...........	-327.66
	311	0.624	5.08316E-002	-4.09708E-006	0.00000E+000	5.00000E-002	1.39540E-003	7	...........	-327.66
	314	0.63	2.08359E-002	-4.17706E-006	0.00000E+000	2.00000E-002	1.45747E-003	7	...........	-327.66
	317	0.636	-9.12873E-003	-4.25160E-006	0.00000E+000	-1.00000E-002	1.48333E-003	7	...........	-327.66
	320	0.642	-3.91192E-002	-4.32001E-006	0.00000E+000	-4.00000E-002	1.50229E-003	7	...........	-327.66
	323	0.648	-6.91382E-002	-4.38457E-006	0.00000E+000	-7.00000E-002	1.33160E-003	7	...........	-327.66
	326	0.654	-9.91710E-002	-4.44518E-006	0.00000E+000	-1.00000E-001	1.42471E-003	7	...........	-327.66
	329	0.66	-1.29210E-001	-4.50023E-006	0.00000E+000	-1.30000E-001	1.40919E-003	7	...........	-327.66
	332	0.666	-1.59199E-001	-4.55128E-006	0.00000E+000	-1.60000E-001	1.45229E-003	7	...........	-327.66
	335	0.672	-1.89096E-001	-4.59632E-006	0.00000E+000	-1.90000E-001	1.42815E-003	7	...........	-327.66
	338	0.678	-2.19092E-001	-4.63498E-006	0.00000E+000	-2.20000E-001	1.51609E-003	7	...........	-327.66
	341	0.684	-2.49147E-001	-4.66751E-006	0.00000E+000	-2.50000E-001	1.40402E-003	7	...........	-327.66
	344	0.69	-2.79186E-001	-4.69022E-006	0.00000E+000	-2.80000E-001	1.38850E-003	7	...........	-327.66
	347	0.696	-3.09133E-001	-4.70491E-006	0.00000E+000	-3.10000E-001	1.45574E-003	7	...........	-327.66
	350	0.702	-3.39166E-001	-4.71353E-006	0.00000E+000	-3.40000E-001	1.49884E-003	7	...........	-327.66
	353	0.708	-3.69026E-001	-4.71432E-006	0.00000E+000	-3.70000E-001	1.48678E-003	7	...........	-327.66
	356	0.714	-3.99130E-001	-4.71053E-006	0.00000E+000	-4.00000E-001	1.46264E-003	7	...........	-327.66
	359	0.72	-4.29135E-001	-4.70246E-006	0.00000E+000	-4.30000E-001	1.43333E-003	7	...........	-327.66
	362	0.726	-4.59125E-001	-4.68887E-006	0.00000E+000	-4.60000E-001	1.38333E-003	7	...........	-327.66
	365	0.732	-4.89105E-001	-4.67228E-006	0.00000E+000	-4.90000E-001	1.42471E-003	7	...........	-327.66
	368	0.738	-5.19157E-001	-4.64619E-006	0.00000E+000	-5.20000E-001	1.44540E-003	7	...........	-327.66
	371	0.744	-5.49067E-001	-4.59815E-006	0.00000E+000	-5.50000E-001	1.46781E-003	7	...........	-327.66
	374	0.75	-5.79067E-001	-4.51216E-006	0.00000E+000	-5.80000E-001	1.44540E-003	7	...........	-327.66
	377	0.756	-6.09141E-001	-4.36291E-006	0.00000E+000	-6.10000E-001	1.43333E-003	7	...........	-327.66
	380	0.762	-6.39136E-001	-4.12307E-006	0.00000E+000	-6.40000E-001	1.42988E-003	7	...........	-327.66
	383	0.768	-6.69065E-001	-3.77457E-006	0.00000E+000	-6.70000E-001	1.39195E-003	7	...........	-327.66
	386	0.774	-6.99110E-001	-3.33783E-006	0.00000E+000	-7.00000E-001	1.39022E-003	7	...........	-327.66
	389	0.78	-7.29058E-001	-2.84647E-006	0.00000E+000	-7.30000E-001	1.38505E-003	7	...........	-327.66
	392	0.786	-7.59098E-001	-2.35266E-006	0.00000E+000	-7.60000E-001	1.42815E-003	7	...........	-327.66
	395	0.792	-7.89118E-001	-1.91087E-006	0.00000E+000	-7.90000E-001	1.37643E-003	7	...........	-327.66
	398	0.798	-8.19111E-001	-1.55455E-006	0.00000E+000	-8.20000E-001	1.37298E-003	7	...........	-327.66
	401	0.804	-8.49162E-001	-1.28863E-006	0.00000E+000	-8.50000E-001	1.47126E-003	7	...........	-327.66
	404	0.81	-8.79162E-001	-1.10011E-006	0.00000E+000	-8.80000E-001	1.43333E-003	7	...........	-327.66
	407	0.816	-8.90686E-001	-8.82732E-007	0.00000E+000	-8.90000E-001	1.45574E-003	7	...........	-327.66
	410	0.822	-8.60651E-001	-6.81153E-007	0.00000E+000	-8.60000E-001	1.41264E-003	7	...........	-327.66
	413	0.828	-8.30614E-001	-5.49169E-007	0.00000E+000	-8.30000E-001	1.41953E-003	7	...........	-327.66
	416	0.834	-8.00704E-001	-4.39447E-007	0.00000E+000	-8.00000E-001	1.41091E-003	7	...........	-327.66
	419	0.84	-7.70626E-001	-3.24880E-007	0.00000E+000	-7.70000E-001	1.41264E-003	7	...........	-327.66
	422	0.846	-7.40745E-001	-1.87068E-007	0.00000E+000	-7.40000E-001	1.47643E-003	7	...........	-327.66
	425	0.852	-7.10666E-001	-1.19236E-008	0.00000E+000	-7.10000E-001	1.48505E-003	7	...........	-327.66
	428	0.858	-6.80719E-001	2.22781E-007	0.00000E+000	-6.80000E-001	1.41609E-003	7	...........	-327.66
	431	0.864	-6.50701E-001	5.43238E-007	0.00000E+000	-6.50000E-001	1.46436E-003	7	...........	-327.66
	434	0.87	-6.20749E-001	9.81970E-007	0.00000E+000	-6.20000E-001	1.41609E-003	7	...........	-327.66
	437	0.876	-5.90740E-001	1.58112E-006	0.00000E+000	-5.90000E-001	1.45229E-003	7	...........	-327.66
[...]
	734	1.47	-6.20721E-001	1.00535E-006	0.00000E+000	-6.20000E-001	1.51781E-003	7	...........	-327.66
	737	1.476	-5.90730E-001	1.61273E-006	0.00000E+000	-5.90000E-001	1.47126E-003	7	...........	-327.66
	740	1.482	-5.60768E-001	2.41820E-006	0.00000E+000	-5.60000E-001	1.41091E-003	7	...........	-327.66
	743	1.488	-5.30770E-001	3.42279E-006	0.00000E+000	-5.30000E-001	1.39884E-003	7	...........	-327.66
	746	1.494	-5.00696E-001	4.50804E-006	0.00000E+000	-5.00000E-001	1.48160E-003	7	...........	-327.66
	749	1.5	-4.70711E-001	5.33101E-006	0.00000E+000	-4.70000E-001	1.47471E-003	7	...........	-327.66
	752	1.506	-4.40776E-001	5.56535E-006	0.00000E+000	-4.40000E-001	1.47298E-003	7	...........	-327.66
	755	1.512	-4.10775E-001	5.33805E-006	0.00000E+000	-4.10000E-001	1.45919E-003	7	...........	-327.66
	758	1.518	-3.80790E-001	4.99650E-006	0.00000E+000	-3.80000E-001	1.49712E-003	7	...........	-327.66
	761	1.524	-3.50762E-001	4.72764E-006	0.00000E+000	-3.50000E-001	1.39367E-003	7	...........	-327.66
	764	1.53	-3.20768E-001	4.55516E-006	0.00000E+000	-3.20000E-001	1.49884E-003	7	...........	-327.66
	767	1.536	-2.90749E-001	4.45531E-006	0.00000E+000	-2.90000E-001	1.47298E-003	7	...........	-327.66
	770	1.542	-2.60778E-001	4.39664E-006	0.00000E+000	-2.60000E-001	1.49540E-003	7	...........	-327.66
	773	1.548	-2.30786E-001	4.35888E-006	0.00000E+000	-2.30000E-001	1.41953E-003	7	...........	-327.66
	776	1.554	-2.00792E-001	4.33207E-006	0.00000E+000	-2.00000E-001	1.37298E-003	7	...........	-327.66
	779	1.56	-1.70782E-001	4.31441E-006	0.00000E+000	-1.70000E-001	1.39540E-003	7	...........	-327.66
	782	1.566	-1.40784E-001	4.30135E-006	0.00000E+000	-1.40000E-001	1.49195E-003	7	...........	-327.66
	785	1.572	-1.10796E-001	4.29166E-006	0.00000E+000	-1.10000E-001	1.47126E-003	7	...........	-327.66
	788	1.578	-8.07934E-002	4.28395E-006	0.00000E+000	-8.00000E-002	1.39367E-003	7	...........	-327.66
	791	1.584	-5.08158E-002	4.27511E-006	0.00000E+000	-5.00000E-002	1.42815E-003	7	...........	-327.66
	794	1.59	-2.08098E-002	4.26314E-006	0.00000E+000	-2.00000E-002	1.47298E-003	7	...........	-327.66
	797	1.596	9.23679E-003	4.24867E-006	0.00000E+000	9.99999E-003	1.42471E-003	7	...........	-327.66
	800	1.602	3.91299E-002	4.22943E-006	0.00000E+000	4.00000E-002	1.48333E-003	7	...........	-327.66
	803	1.608	6.92161E-002	4.20655E-006	0.00000E+000	7.00000E-002	1.45747E-003	7	...........	-327.66
	806	1.614	9.92204E-002	4.17927E-006	0.00000E+000	1.00000E-001	1.46953E-003	7	...........	-327.66
	809	1.62	1.29241E-001	4.14947E-006	0.00000E+000	1.30000E-001	1.37988E-003	7	...........	-327.66
	812	1.626	1.59231E-001	4.11805E-006	0.00000E+000	1.60000E-001	1.42988E-003	7	...........	-327.66
	815	1.632	1.89218E-001	4.08745E-006	0.00000E+000	1.90000E-001	1.36264E-003	7	...........	-327.66
	818	1.638	2.19210E-001	4.05882E-006	0.00000E+000	2.20000E-001	1.39022E-003	7	...........	-327.66
	821	1.644	2.49200E-001	4.03258E-006	0.00000E+000	2.50000E-001	1.40747E-003	7	...........	-327.66
	824	1.65	2.79181E-001	4.00823E-006	0.00000E+000	2.80000E-001	1.47988E-003	7	...........	-327.66
	827	1.656	3.09171E-001	3.99185E-006	0.00000E+000	3.10000E-001	1.43505E-003	7	...........	-327.66
	830	1.662	3.39193E-001	3.98240E-006	0.00000E+000	3.40000E-001	1.44540E-003	7	...........	-327.66
	833	1.668	3.69229E-001	3.98328E-006	0.00000E+000	3.70000E-001	1.42988E-003	7	...........	-327.66
	836	1.674	3.99208E-001	3.99392E-006	0.00000E+000	4.00000E-001	1.48333E-003	7	...........	-327.66
	839	1.68	4.29191E-001	4.01694E-006	0.00000E+000	4.30000E-001	1.46264E-003	7	...........	-327.66
	842	1.686	4.59176E-001	4.05346E-006	0.00000E+000	4.60000E-001	1.43160E-003	7	...........	-327.66
	845	1.692	4.89156E-001	4.10536E-006	0.00000E+000	4.90000E-001	1.44884E-003	7	...........	-327.66
	848	1.698	5.19156E-001	4.17353E-006	0.00000E+000	5.20000E-001	1.48678E-003	7	...........	-327.66
	851	1.704	5.49184E-001	4.25549E-006	0.00000E+000	5.50000E-001	1.42988E-003	7	...........	-327.66
	854	1.71	5.79173E-001	4.35438E-006	0.00000E+000	5.80000E-001	1.40574E-003	7	...........	-327.66
	856	1.714	5.99191E-001	4.42747E-006	0.00000E+000	6.00000E-001	1.51091E-003	7	...........	-327.66
CURVE4	TABLE
	Pt	T	Vf	Im	Vu	Sig	Ach	IERange	Over	Temp
	#	s	V vs. Ref.	A	V	V	V	#	bits	deg C
	857	1.716	5.90759E-001	2.93055E-006	0.00000E+000	5.90000E-001	1.44884E-003	7	...........	-327.66
	858	1.718	5.80762E-001	2.09412E-006	0.00000E+000	5.80000E-001	1.42471E-003	7	...........	-327.66
	859	1.72	5.70759E-001	1.48021E-006	0.00000E+000	5.70000E-001	1.47643E-003	7	...........	-327.66
	860	1.722	5.60760E-001	9.77246E-007	0.00000E+000	5.60000E-001	1.48850E-003	7	...........	-327.66
	861	1.724	5.50771E-001	5.46721E-007	0.00000E+000	5.50000E-001	1.47471E-003	7	...........	-327.66
	862	1.726	5.40789E-001	1.68170E-007	0.00000E+000	5.40000E-001	1.47988E-003	7	...........	-327.66
	863	1.728	5.30776E-001	-1.67324E-007	0.00000E+000	5.30000E-001	1.47126E-003	7	...........	-327.66
	864	1.73	5.20779E-001	-4.70279E-007	0.00000E+000	5.20000E-001	1.43160E-003	7	...........	-327.66
	865	1.732	5.10764E-001	-7.40937E-007	0.00000E+000	5.10000E-001	1.42298E-003	7	...........	-327.66
	866	1.734	5.00801E-001	-9.85608E-007	0.00000E+000	5.00000E-001	1.39884E-003	7	...........	-327.66
	867	1.736	4.90754E-001	-1.20838E-006	0.00000E+000	4.90000E-001	1.45402E-003	7	...........	-327.66
	868	1.738	4.80755E-001	-1.41068E-006	0.00000E+000	4.80000E-001	1.39712E-003	7	...........	-327.66
	869	1.74	4.70782E-001	-1.59355E-006	0.00000E+000	4.70000E-001	1.44884E-003	7	...........	-327.66
	870	1.742	4.60770E-001	-1.76225E-006	0.00000E+000	4.60000E-001	1.52471E-003	7	...........	-327.66
	871	1.744	4.50850E-001	-1.91505E-006	0.00000E+000	4.50000E-001	1.46609E-003	7	...........	-327.66
	872	1.746	4.40769E-001	-2.05743E-006	0.00000E+000	4.40000E-001	1.47298E-003	7	...........	-327.66
	873	1.748	4.30779E-001	-2.18646E-006	0.00000E+000	4.30000E-001	1.40229E-003	7	...........	-327.66
	874	1.75	4.20809E-001	-2.30560E-006	0.00000E+000	4.20000E-001	1.38160E-003	7	...........	-327.66
	875	1.752	4.10782E-001	-2.41448E-006	0.00000E+000	4.10000E-001	1.35747E-003	7	...........	-327.66
	876	1.754	4.00786E-001	-2.51716E-006	0.00000E+000	4.00000E-001	1.41091E-003	7	...........	-327.66
	877	1.756	3.90797E-001	-2.61211E-006	0.00000E+000	3.90000E-001	1.40574E-003	7	...........	-327.66
	878	1.758	3.80814E-001	-2.69851E-006	0.00000E+000	3.80000E-001	1.47471E-003	7	...........	-327.66
	879	1.76	3.70836E-001	-2.78116E-006	0.00000E+000	3.70000E-001	1.40747E-003	7	...........	-327.66
	880	1.762	3.60765E-001	-2.85859E-006	0.00000E+000	3.60000E-001	1.46091E-003	7	...........	-327.66
	881	1.764	3.50820E-001	-2.93055E-006	0.00000E+000	3.50000E-001	1.47988E-003	7	...........	-327.66
	882	1.766	3.40829E-001	-2.99812E-006	0.00000E+000	3.40000E-001	1.41091E-003	7	...........	-327.66
	883	1.768	3.30809E-001	-3.06115E-006	0.00000E+000	3.30000E-001	1.48160E-003	7	...........	-327.66
	884	1.77	3.20801E-001	-3.12314E-006	0.00000E+000	3.20000E-001	1.45057E-003	7	...........	-327.66
	885	1.772	3.10794E-001	-3.18008E-006	0.00000E+000	3.10000E-001	1.39022E-003	7	...........	-327.66
	886	1.774	3.00792E-001	-3.23597E-006	0.00000E+000	3.00000E-001	1.45919E-003	7	...........	-327.66
	887	1.776	2.90808E-001	-3.28682E-006	0.00000E+000	2.90000E-001	1.44712E-003	7	...........	-327.66
	888	1.778	2.80791E-001	-3.33745E-006	0.00000E+000	2.80000E-001	1.44884E-003	7	...........	-327.66
	889	1.78	2.70868E-001	-3.38571E-006	0.00000E+000	2.70000E-001	1.42298E-003	7	...........	-327.66
	890	1.782	2.60809E-001	-3.43270E-006	0.00000E+000	2.60000E-001	1.38333E-003	7	...........	-327.66
	891	1.784	2.50829E-001	-3.47602E-006	0.00000E+000	2.50000E-001	1.47298E-003	7	...........	-327.66
	892	1.786	2.40790E-001	-3.51918E-006	0.00000E+000	2.40000E-001	1.42298E-003	7	...........	-327.66
	893	1.788	2.30790E-001	-3.56103E-006	0.00000E+000	2.30000E-001	1.46609E-003	7	...........	-327.66
	894	1.79	2.20843E-001	-3.60172E-006	0.00000E+000	2.20000E-001	1.46953E-003	7	...........	-327.66
	895	1.792	2.10776E-001	-3.64075E-006	0.00000E+000	2.10000E-001	1.44540E-003	7	...........	-327.66
	896	1.794	2.00815E-001	-3.67796E-006	0.00000E+000	2.00000E-001	1.45057E-003	7	...........	-327.66
	897	1.796	1.90850E-001	-3.71481E-006	0.00000E+000	1.90000E-001	1.37471E-003	7	...........	-327.66
	898	1.798	1.80804E-001	-3.75092E-006	0.00000E+000	1.80000E-001	1.45747E-003	7	...........	-327.66
	899	1.8	1.70874E-001	-3.78458E-006	0.00000E+000	1.70000E-001	1.46091E-003	7	...........	-327.66
	900	1.802	1.60841E-001	-3.81832E-006	0.00000E+000	1.60000E-001	1.41609E-003	7	...........	-327.66