File: Test_Data_Files/20250509_ZB_IF0011_IIA42_E07_PBSair_PEDOT_CV50.DTA
EXPLAIN
TAG	CV
TITLE	LABEL	CV50	Test Identifier
DATE	LABEL	5/9/2025	Date
TIME	LABEL	15:24:07	Time
NOTES	NOTES	1	Notes...

PSTAT	PSTAT	REF600P-43058	Potentiostat
VINIT	POTEN	0.00000E+000	T	Initial E (V)
VLIMIT1	POTEN	-9.00000E-001	F	Scan Limit 1 (V)
VLIMIT2	POTEN	6.00000E-001	F	Scan Limit 2 (V)
VFINAL	POTEN	0.00000E+000	T	Final E (V)
SCANRATE	QUANT	4.99999E+001	Scan Rate (mV/s)
STEPSIZE	QUANT	1.00000E+001	Step Size (mV)
CYCLES	IQUANT	3	Cycles (#)
IMODE	SELECTOR	1	I/E Range Mode
IRANGE	QUANT	1.00000E-003	Max Current (mA)
AREA	QUANT	1.00000E+000	Sample Area (cm^2)
EQDELAY	QUANT	5.00000E+000	Equil. Time (s)
IRCOMP	SELECTOR	0	IRComp
PFCOR	QUANT	5.00000E+001	PF Corr. (ohm)
SAMPLINGMODE	SELECTOR	2	Sampling Mode
EOC	QUANT	0.1338838	Open Circuit (V)
ELECTRODETYPE	SELECTOR	0	Electrode Type
STRIPPING	TOGGLE	F	Used for Stripping
SEQUENCER	TOGGLE	TRUE	Run as Sequence
PSTATMODEL	IQUANT	7	Pstat Model
PSTATSECTION	LABEL	REF600P-43058	Pstat Section
PSTATSERIALNO	LABEL	43058	Pstat Serial Number
CTRLMODE	IQUANT	1	Control Mode
ELECTROMETER	IQUANT	0	RE=0 or CS=1
IESTAB	IQUANT	2	I/E Stability
CASPEED	IQUANT	4	Control Amp Speed
CONVENTION	IQUANT	1	Current Convention
ICHRANGE	IQUANT	2	Ich Range
ICHRANGEMODE	TOGGLE	F	Ich Auto Range
ICHOFFSETENABLE	TOGGLE	F	Ich Offset Enable
ICHOFFSET	QUANT	0	Ich Offset (V)
ICHFILTER	IQUANT	2	Ich Filter
VCHRANGE	IQUANT	2	Vch Range
VCHRANGEMODE	TOGGLE	F	Vch Auto Range
VCHOFFSETENABLE	TOGGLE	F	Vch Offset Enable
VCHOFFSET	QUANT	0	Vch Offset (V)
VCHFILTER	IQUANT	2	Vch Filter
ACHRANGE	IQUANT	2	Ach Range
ACHOFFSETENABLE	TOGGLE	F	Ach Offset Enable
ACHOFFSET	QUANT	0	Ach Offset (V)
ACHFILTER	IQUANT	1	Ach Filter
IERANGELOWERLIMIT	IQUANT	1	I/E Range Lower Limit
IERANGEMODE	TOGGLE	F	I/E AutoRange
IERANGE	IQUANT	6	I/E Range
POSFEEDENABLE	TOGGLE	F	Positive Feedback IR Comp
POSFEEDRESISTANCE	QUANT	0	Positive Feedback Resistance (ohm)
ACHSELECT	IQUANT	4	Ach Select
SENSECABLEID	IQUANT	7	Sense Cable ID
PWRCABLEID	IQUANT	7	Power Cable ID
DCCALDATE	LABEL	5/8/2025	DC Calibration Date
ACCALDATE	LABEL	5/8/2025	AC Calibration Date
THERMOSELECT	IQUANT	1	Thermo Select
FRAMEWORKVERSION	LABEL	7.10.4	Framework Version
INSTRUMENTVERSION	LABEL	5.01	Instrument Version
COMMVERSION	LABEL	5.10	Communications Version
CPUPLDVERSION	LABEL	6.00	CPU PLD Version
CTRLPLDVERSION	LABEL	3.21	CTRL PLD Version
PSTATPLDVERSION	LABEL	0.00	PSTAT PLD Version
CURVE1	TABLE
	Pt	T	Vf	Im	Vu	Sig	Ach	IERange	Over	Temp
	#	s	V vs. Ref.	A	V	V	V	#	bits	deg C
	0	0.2	1.33924E-001	5.26439E-010	0.00000E+000	1.33900E-001	1.41056E-003	6	...........	-327.66
	3	0.8	1.03881E-001	-3.29837E-008	0.00000E+000	1.03900E-001	1.41710E-003	6	...........	-327.66
	6	1.4	7.39490E-002	-3.36676E-008	0.00000E+000	7.39000E-002	1.40233E-003	6	...........	-327.66
	9	2	4.39774E-002	-3.46678E-008	0.00000E+000	4.39000E-002	1.41842E-003	6	...........	-327.66
	12	2.6	1.39856E-002	-3.56259E-008	0.00000E+000	1.39000E-002	1.41046E-003	6	...........	-327.66
	15	3.2	-1.60381E-002	-3.66919E-008	0.00000E+000	-1.61000E-002	1.41372E-003	6	...........	-327.66
	18	3.8	-4.60720E-002	-3.79417E-008	0.00000E+000	-4.61000E-002	1.42008E-003	6	...........	-327.66
	21	4.4	-7.60073E-002	-3.92283E-008	0.00000E+000	-7.61000E-002	1.42255E-003	6	...........	-327.66
	24	5	-1.06091E-001	-4.06118E-008	0.00000E+000	-1.06100E-001	1.41600E-003	6	...........	-327.66
	27	5.6	-1.36058E-001	-4.20764E-008	0.00000E+000	-1.36100E-001	1.42512E-003	6	...........	-327.66
	30	6.2	-1.66062E-001	-4.36060E-008	0.00000E+000	-1.66100E-001	1.41717E-003	6	...........	-327.66
	33	6.8	-1.95986E-001	-4.52835E-008	0.00000E+000	-1.96100E-001	1.42602E-003	6	...........	-327.66
	36	7.4	-2.26050E-001	-4.70571E-008	0.00000E+000	-2.26100E-001	1.42760E-003	6	...........	-327.66
	39	8	-2.56046E-001	-4.88157E-008	0.00000E+000	-2.56100E-001	1.41545E-003	6	...........	-327.66
	42	8.6	-2.86032E-001	-5.06713E-008	0.00000E+000	-2.86100E-001	1.41360E-003	6	...........	-327.66
	45	9.2	-3.16013E-001	-5.26273E-008	0.00000E+000	-3.16100E-001	1.43154E-003	6	...........	-327.66
	48	9.8	-3.46044E-001	-5.44166E-008	0.00000E+000	-3.46100E-001	1.41965E-003	6	...........	-327.66
	51	10.4	-3.76060E-001	-5.60468E-008	0.00000E+000	-3.76100E-001	1.42800E-003	6	...........	-327.66
	54	11	-4.06049E-001	-5.75904E-008	0.00000E+000	-4.06100E-001	1.41397E-003	6	...........	-327.66
	57	11.6	-4.35999E-001	-5.90512E-008	0.00000E+000	-4.36100E-001	1.42675E-003	6	...........	-327.66
	60	12.2	-4.66027E-001	-6.04690E-008	0.00000E+000	-4.66100E-001	1.42450E-003	6	...........	-327.66
	63	12.8	-4.95997E-001	-6.18135E-008	0.00000E+000	-4.96100E-001	1.42899E-003	6	...........	-327.66
	66	13.4	-5.26002E-001	-6.32371E-008	0.00000E+000	-5.26100E-001	1.43592E-003	6	...........	-327.66
	69	14	-5.55962E-001	-6.47246E-008	0.00000E+000	-5.56100E-001	1.42945E-003	6	...........	-327.66
	72	14.6	-5.86025E-001	-6.61881E-008	0.00000E+000	-5.86100E-001	1.42098E-003	6	...........	-327.66
	75	15.2	-6.15991E-001	-6.75342E-008	0.00000E+000	-6.16100E-001	1.43644E-003	6	...........	-327.66
	78	15.8	-6.45953E-001	-6.85747E-008	0.00000E+000	-6.46100E-001	1.42607E-003	6	...........	-327.66
	81	16.4	-6.75947E-001	-6.90097E-008	0.00000E+000	-6.76100E-001	1.42322E-003	6	...........	-327.66
	84	17	-7.05953E-001	-6.75027E-008	0.00000E+000	-7.06100E-001	1.43766E-003	6	...........	-327.66
	87	17.6	-7.35972E-001	-6.30386E-008	0.00000E+000	-7.36100E-001	1.42145E-003	6	...........	-327.66
	90	18.2	-7.65993E-001	-5.60815E-008	0.00000E+000	-7.66100E-001	1.43340E-003	6	...........	-327.66
	93	18.8	-7.95977E-001	-4.80525E-008	0.00000E+000	-7.96100E-001	1.43289E-003	6	...........	-327.66
	96	19.4	-8.26007E-001	-4.02802E-008	0.00000E+000	-8.26100E-001	1.42745E-003	6	...........	-327.66
	99	20	-8.55955E-001	-3.36690E-008	0.00000E+000	-8.56100E-001	1.44398E-003	6	...........	-327.66
	102	20.6	-8.85954E-001	-2.90035E-008	0.00000E+000	-8.86100E-001	1.42949E-003	6	...........	-327.66
	105	21.2	-8.76023E-001	-2.15168E-008	0.00000E+000	-8.76100E-001	1.43846E-003	6	...........	-327.66
	108	21.8	-8.46039E-001	-1.65908E-008	0.00000E+000	-8.46100E-001	1.43592E-003	6	...........	-327.66
	111	22.4	-8.16082E-001	-1.19053E-008	0.00000E+000	-8.16100E-001	1.42792E-003	6	...........	-327.66
	114	23	-7.86014E-001	-5.79469E-009	0.00000E+000	-7.86100E-001	1.43409E-003	6	...........	-327.66
	117	23.6	-7.55971E-001	3.12732E-009	0.00000E+000	-7.56100E-001	1.44336E-003	6	...........	-327.66
	120	24.2	-7.26018E-001	1.50881E-008	0.00000E+000	-7.26100E-001	1.42409E-003	6	...........	-327.66
	123	24.8	-6.96040E-001	2.58434E-008	0.00000E+000	-6.96100E-001	1.42740E-003	6	...........	-327.66
	126	25.4	-6.66029E-001	2.83819E-008	0.00000E+000	-6.66100E-001	1.43119E-003	6	...........	-327.66
	129	26	-6.36017E-001	2.75388E-008	0.00000E+000	-6.36100E-001	1.43532E-003	6	...........	-327.66
	132	26.6	-6.06049E-001	2.75998E-008	0.00000E+000	-6.06100E-001	1.42950E-003	6	...........	-327.66
	135	27.2	-5.76047E-001	2.81649E-008	0.00000E+000	-5.76100E-001	1.42887E-003	6	...........	-327.66
	138	27.8	-5.46055E-001	2.90564E-008	0.00000E+000	-5.46100E-001	1.43354E-003	6	...........	-327.66
	141	28.4	-5.16022E-001	3.01919E-008	0.00000E+000	-5.16100E-001	1.42732E-003	6	...........	-327.66
	144	29	-4.86066E-001	3.16006E-008	0.00000E+000	-4.86100E-001	1.42110E-003	6	...........	-327.66
	147	29.6	-4.56092E-001	3.31140E-008	0.00000E+000	-4.56100E-001	1.43737E-003	6	...........	-327.66
	150	30.2	-4.26069E-001	3.49371E-008	0.00000E+000	-4.26100E-001	1.43219E-003	6	...........	-327.66
	153	30.8	-3.96036E-001	3.68208E-008	0.00000E+000	-3.96100E-001	1.43741E-003	6	...........	-327.66
	156	31.4	-3.66077E-001	3.85908E-008	0.00000E+000	-3.66100E-001	1.42980E-003	6	...........	-327.66
	159	32	-3.36065E-001	4.03443E-008	0.00000E+000	-3.36100E-001	1.43037E-003	6	...........	-327.66
	162	32.6	-3.06086E-001	4.19603E-008	0.00000E+000	-3.06100E-001	1.43416E-003	6	...........	-327.66
	165	33.2	-2.76026E-001	4.34391E-008	0.00000E+000	-2.76100E-001	1.43337E-003	6	...........	-327.66
	168	33.8	-2.46081E-001	4.48669E-008	0.00000E+000	-2.46100E-001	1.41345E-003	6	...........	-327.66
	171	34.4	-2.16019E-001	4.60331E-008	0.00000E+000	-2.16100E-001	1.43954E-003	6	...........	-327.66
	174	35	-1.86072E-001	4.69065E-008	0.00000E+000	-1.86100E-001	1.43354E-003	6	...........	-327.66
	177	35.6	-1.56039E-001	4.77155E-008	0.00000E+000	-1.56100E-001	1.42965E-003	6	...........	-327.66
	180	36.2	-1.26125E-001	4.84141E-008	0.00000E+000	-1.26100E-001	1.42949E-003	6	...........	-327.66
	183	36.8	-9.61216E-002	4.89053E-008	0.00000E+000	-9.61000E-002	1.42497E-003	6	...........	-327.66
	186	37.4	-6.60920E-002	4.94709E-008	0.00000E+000	-6.61000E-002	1.44052E-003	6	...........	-327.66
	189	38	-3.60213E-002	4.98640E-008	0.00000E+000	-3.61000E-002	1.42632E-003	6	...........	-327.66
	192	38.6	-6.09496E-003	5.01670E-008	0.00000E+000	-6.10001E-003	1.42892E-003	6	...........	-327.66
	195	39.2	2.39292E-002	5.05001E-008	0.00000E+000	2.39000E-002	1.43961E-003	6	...........	-327.66
	198	39.8	5.39368E-002	5.06876E-008	0.00000E+000	5.39000E-002	1.42427E-003	6	...........	-327.66
	201	40.4	8.39695E-002	5.12117E-008	0.00000E+000	8.39000E-002	1.43811E-003	6	...........	-327.66
	204	41	1.13930E-001	5.16118E-008	0.00000E+000	1.13900E-001	1.43534E-003	6	...........	-327.66
	207	41.6	1.43941E-001	5.20696E-008	0.00000E+000	1.43900E-001	1.42318E-003	6	...........	-327.66
	210	42.2	1.73945E-001	5.25616E-008	0.00000E+000	1.73900E-001	1.43787E-003	6	...........	-327.66
	213	42.8	2.03961E-001	5.30772E-008	0.00000E+000	2.03900E-001	1.43947E-003	6	...........	-327.66
	216	43.4	2.33915E-001	5.36908E-008	0.00000E+000	2.33900E-001	1.42675E-003	6	...........	-327.66
	219	44	2.63868E-001	5.41960E-008	0.00000E+000	2.63900E-001	1.43602E-003	6	...........	-327.66
	222	44.6	2.93867E-001	5.48662E-008	0.00000E+000	2.93900E-001	1.43384E-003	6	...........	-327.66
	225	45.2	3.23942E-001	5.57445E-008	0.00000E+000	3.23900E-001	1.44069E-003	6	...........	-327.66
	228	45.8	3.53920E-001	5.67723E-008	0.00000E+000	3.53900E-001	1.42619E-003	6	...........	-327.66
	231	46.4	3.83892E-001	5.78749E-008	0.00000E+000	3.83900E-001	1.43721E-003	6	...........	-327.66
	234	47	4.13873E-001	5.90319E-008	0.00000E+000	4.13900E-001	1.44613E-003	6	...........	-327.66
	237	47.6	4.43902E-001	6.05300E-008	0.00000E+000	4.43900E-001	1.43619E-003	6	...........	-327.66
	240	48.2	4.73896E-001	6.21453E-008	0.00000E+000	4.73900E-001	1.42312E-003	6	...........	-327.66
	243	48.8	5.03857E-001	6.40445E-008	0.00000E+000	5.03900E-001	1.43927E-003	6	...........	-327.66
	246	49.4	5.33908E-001	6.61900E-008	0.00000E+000	5.33900E-001	1.43154E-003	6	...........	-327.66
	249	50	5.63928E-001	6.89118E-008	0.00000E+000	5.63900E-001	1.44072E-003	6	...........	-327.66
	252	50.6	5.93848E-001	7.25601E-008	0.00000E+000	5.93900E-001	1.43792E-003	6	...........	-327.66
	253	50.8	6.03959E-001	7.40463E-008	0.00000E+000	6.03900E-001	1.42930E-003	6	...........	-327.66
CURVE2	TABLE
	Pt	T	Vf	Im	Vu	Sig	Ach	IERange	Over	Temp
	#	s	V vs. Ref.	A	V	V	V	#	bits	deg C
	254	51	5.89983E-001	-2.29625E-008	0.00000E+000	5.90000E-001	1.44161E-003	6	...........	-327.66
	257	51.6	5.59967E-001	-2.30438E-008	0.00000E+000	5.60000E-001	1.42927E-003	6	...........	-327.66
	260	52.2	5.30001E-001	-2.82538E-008	0.00000E+000	5.30000E-001	1.42952E-003	6	...........	-327.66
	263	52.8	5.00005E-001	-3.09583E-008	0.00000E+000	5.00000E-001	1.43209E-003	6	...........	-327.66
	266	53.4	4.69969E-001	-3.27834E-008	0.00000E+000	4.70000E-001	1.42724E-003	6	...........	-327.66
	269	54	4.39927E-001	-3.40877E-008	0.00000E+000	4.40000E-001	1.43664E-003	6	...........	-327.66
	272	54.6	4.09977E-001	-3.49599E-008	0.00000E+000	4.10000E-001	1.42564E-003	6	...........	-327.66
	275	55.2	3.79998E-001	-3.58599E-008	0.00000E+000	3.80000E-001	1.42504E-003	6	...........	-327.66
	278	55.8	3.50015E-001	-3.65219E-008	0.00000E+000	3.50000E-001	1.43782E-003	6	...........	-327.66
	281	56.4	3.19983E-001	-3.70985E-008	0.00000E+000	3.20000E-001	1.42005E-003	6	...........	-327.66
	284	57	2.90006E-001	-3.76014E-008	0.00000E+000	2.90000E-001	1.42524E-003	6	...........	-327.66
	287	57.6	2.60003E-001	-3.81741E-008	0.00000E+000	2.60000E-001	1.43149E-003	6	...........	-327.66
	290	58.2	2.29998E-001	-3.86109E-008	0.00000E+000	2.30000E-001	1.42519E-003	6	...........	-327.66
	293	58.8	2.00001E-001	-3.90437E-008	0.00000E+000	2.00000E-001	1.42348E-003	6	...........	-327.66
	296	59.4	1.70084E-001	-3.94255E-008	0.00000E+000	1.70000E-001	1.42594E-003	6	...........	-327.66
	299	60	1.40094E-001	-3.99221E-008	0.00000E+000	1.40000E-001	1.43229E-003	6	...........	-327.66
	302	60.6	1.10017E-001	-4.03190E-008	0.00000E+000	1.10000E-001	1.43154E-003	6	...........	-327.66
	305	61.2	7.99931E-002	-4.08222E-008	0.00000E+000	8.00000E-002	1.41308E-003	6	...........	-327.66
	308	61.8	5.00303E-002	-4.12545E-008	0.00000E+000	5.00000E-002	1.42874E-003	6	...........	-327.66
	311	62.4	2.00097E-002	-4.17989E-008	0.00000E+000	2.00000E-002	1.42385E-003	6	...........	-327.66
	314	63	-9.97052E-003	-4.22621E-008	0.00000E+000	-1.00000E-002	1.41867E-003	6	...........	-327.66
	317	63.6	-3.99471E-002	-4.29062E-008	0.00000E+000	-4.00000E-002	1.42612E-003	6	...........	-327.66
	320	64.2	-6.99473E-002	-4.34172E-008	0.00000E+000	-7.00000E-002	1.42384E-003	6	...........	-327.66
	323	64.8	-9.99856E-002	-4.40998E-008	0.00000E+000	-1.00000E-001	1.42674E-003	6	...........	-327.66
	326	65.4	-1.30009E-001	-4.47051E-008	0.00000E+000	-1.30000E-001	1.42819E-003	6	...........	-327.66
	329	66	-1.60001E-001	-4.54470E-008	0.00000E+000	-1.60000E-001	1.41520E-003	6	...........	-327.66
	332	66.6	-1.89880E-001	-4.63132E-008	0.00000E+000	-1.90000E-001	1.43352E-003	6	...........	-327.66
	335	67.2	-2.19895E-001	-4.73297E-008	0.00000E+000	-2.20000E-001	1.43651E-003	6	...........	-327.66
	338	67.8	-2.49977E-001	-4.86284E-008	0.00000E+000	-2.50000E-001	1.42669E-003	6	...........	-327.66
	341	68.4	-2.80006E-001	-5.00663E-008	0.00000E+000	-2.80000E-001	1.43984E-003	6	...........	-327.66
	344	69	-3.09963E-001	-5.16771E-008	0.00000E+000	-3.10000E-001	1.42715E-003	6	...........	-327.66
	347	69.6	-3.39991E-001	-5.34478E-008	0.00000E+000	-3.40000E-001	1.42554E-003	6	...........	-327.66
	350	70.2	-3.69877E-001	-5.49528E-008	0.00000E+000	-3.70000E-001	1.42910E-003	6	...........	-327.66
	353	70.8	-3.99978E-001	-5.63778E-008	0.00000E+000	-4.00000E-001	1.42950E-003	6	...........	-327.66
	356	71.4	-4.29952E-001	-5.76335E-008	0.00000E+000	-4.30000E-001	1.43471E-003	6	...........	-327.66
	359	72	-4.59963E-001	-5.89131E-008	0.00000E+000	-4.60000E-001	1.43644E-003	6	...........	-327.66
	362	72.6	-4.89959E-001	-6.01091E-008	0.00000E+000	-4.90000E-001	1.42510E-003	6	...........	-327.66
	365	73.2	-5.19992E-001	-6.13899E-008	0.00000E+000	-5.20000E-001	1.43052E-003	6	...........	-327.66
	368	73.8	-5.49816E-001	-6.24691E-008	0.00000E+000	-5.50000E-001	1.43462E-003	6	...........	-327.66
	371	74.4	-5.79870E-001	-6.35582E-008	0.00000E+000	-5.80000E-001	1.42877E-003	6	...........	-327.66
	374	75	-6.09930E-001	-6.44347E-008	0.00000E+000	-6.10000E-001	1.44144E-003	6	...........	-327.66
	377	75.6	-6.39960E-001	-6.50068E-008	0.00000E+000	-6.40000E-001	1.43072E-003	6	...........	-327.66
	380	76.2	-6.69798E-001	-6.49727E-008	0.00000E+000	-6.70000E-001	1.43514E-003	6	...........	-327.66
	383	76.8	-6.99949E-001	-6.36382E-008	0.00000E+000	-7.00000E-001	1.44106E-003	6	...........	-327.66
	386	77.4	-7.29855E-001	-5.96458E-008	0.00000E+000	-7.30000E-001	1.43557E-003	6	...........	-327.66
	389	78	-7.59896E-001	-5.36798E-008	0.00000E+000	-7.60000E-001	1.42960E-003	6	...........	-327.66
	392	78.6	-7.89890E-001	-4.62449E-008	0.00000E+000	-7.90000E-001	1.42647E-003	6	...........	-327.66
	395	79.2	-8.19903E-001	-3.88276E-008	0.00000E+000	-8.20000E-001	1.44719E-003	6	...........	-327.66
	398	79.8	-8.49874E-001	-3.27765E-008	0.00000E+000	-8.50000E-001	1.43389E-003	6	...........	-327.66
	401	80.4	-8.79936E-001	-2.81632E-008	0.00000E+000	-8.80000E-001	1.43159E-003	6	...........	-327.66
	404	81	-8.89960E-001	-2.20590E-008	0.00000E+000	-8.90000E-001	1.43174E-003	6	...........	-327.66
	407	81.6	-8.59893E-001	-1.70467E-008	0.00000E+000	-8.60000E-001	1.43587E-003	6	...........	-327.66
	410	82.2	-8.29852E-001	-1.28424E-008	0.00000E+000	-8.30000E-001	1.43999E-003	6	...........	-327.66
	413	82.8	-7.99964E-001	-7.94156E-009	0.00000E+000	-8.00000E-001	1.43254E-003	6	...........	-327.66
	416	83.4	-7.69963E-001	-7.18084E-010	0.00000E+000	-7.70000E-001	1.44344E-003	6	...........	-327.66
	419	84	-7.39994E-001	9.63962E-009	0.00000E+000	-7.40000E-001	1.43981E-003	6	...........	-327.66
	422	84.6	-7.09920E-001	2.18741E-008	0.00000E+000	-7.10000E-001	1.43464E-003	6	...........	-327.66
	425	85.2	-6.79932E-001	2.84123E-008	0.00000E+000	-6.80000E-001	1.44014E-003	6	...........	-327.66
	428	85.8	-6.49931E-001	2.79947E-008	0.00000E+000	-6.50000E-001	1.43594E-003	6	...........	-327.66
	431	86.4	-6.19990E-001	2.74639E-008	0.00000E+000	-6.20000E-001	1.43706E-003	6	...........	-327.66
	434	87	-5.89976E-001	2.77585E-008	0.00000E+000	-5.90000E-001	1.43601E-003	6	...........	-327.66
	437	87.6	-5.60024E-001	2.84135E-008	0.00000E+000	-5.60000E-001	1.42960E-003	6	...........	-327.66
	440	88.2	-5.29988E-001	2.93833E-008	0.00000E+000	-5.30000E-001	1.44076E-003	6	...........	-327.66
	443	88.8	-4.99915E-001	3.05902E-008	0.00000E+000	-5.00000E-001	1.44643E-003	6	...........	-327.66
[...]
	740	148.2	-5.29980E-001	2.92200E-008	0.00000E+000	-5.30000E-001	1.43786E-003	6	...........	-327.66
	743	148.8	-4.99905E-001	3.03777E-008	0.00000E+000	-5.00000E-001	1.45031E-003	6	...........	-327.66
	746	149.4	-4.69877E-001	3.17908E-008	0.00000E+000	-4.70000E-001	1.45086E-003	6	...........	-327.66
	749	150	-4.40013E-001	3.33809E-008	0.00000E+000	-4.40000E-001	1.44739E-003	6	...........	-327.66
	752	150.6	-4.10006E-001	3.51963E-008	0.00000E+000	-4.10000E-001	1.44092E-003	6	...........	-327.66
	755	151.2	-3.80013E-001	3.68935E-008	0.00000E+000	-3.80000E-001	1.45548E-003	6	...........	-327.66
	758	151.8	-3.49997E-001	3.87628E-008	0.00000E+000	-3.50000E-001	1.44291E-003	6	...........	-327.66
	761	152.4	-3.20021E-001	4.04694E-008	0.00000E+000	-3.20000E-001	1.43340E-003	6	...........	-327.66
	764	153	-2.89981E-001	4.21226E-008	0.00000E+000	-2.90000E-001	1.43919E-003	6	...........	-327.66
	767	153.6	-2.60010E-001	4.36139E-008	0.00000E+000	-2.60000E-001	1.43774E-003	6	...........	-327.66
	770	154.2	-2.30004E-001	4.50525E-008	0.00000E+000	-2.30000E-001	1.42944E-003	6	...........	-327.66
	773	154.8	-2.00057E-001	4.61148E-008	0.00000E+000	-2.00000E-001	1.44458E-003	6	...........	-327.66
	776	155.4	-1.70023E-001	4.71506E-008	0.00000E+000	-1.70000E-001	1.43752E-003	6	...........	-327.66
	779	156	-1.40000E-001	4.79012E-008	0.00000E+000	-1.40000E-001	1.43957E-003	6	...........	-327.66
	782	156.6	-1.10005E-001	4.86160E-008	0.00000E+000	-1.10000E-001	1.43636E-003	6	...........	-327.66
	785	157.2	-8.00268E-002	4.92883E-008	0.00000E+000	-8.00000E-002	1.43139E-003	6	...........	-327.66
	788	157.8	-5.00386E-002	4.97296E-008	0.00000E+000	-5.00000E-002	1.44044E-003	6	...........	-327.66
	791	158.4	-2.00010E-002	5.01355E-008	0.00000E+000	-2.00000E-002	1.43372E-003	6	...........	-327.66
	794	159	1.00225E-002	5.08832E-008	0.00000E+000	9.99999E-003	1.43252E-003	6	...........	-327.66
	797	159.6	3.97636E-002	5.12524E-008	0.00000E+000	4.00000E-002	1.44272E-003	6	...........	-327.66
	800	160.2	7.00078E-002	5.14679E-008	0.00000E+000	7.00000E-002	1.43852E-003	6	...........	-327.66
	803	160.8	9.99836E-002	5.20259E-008	0.00000E+000	1.00000E-001	1.43654E-003	6	...........	-327.66
	806	161.4	1.30019E-001	5.27364E-008	0.00000E+000	1.30000E-001	1.43099E-003	6	...........	-327.66
	809	162	1.59978E-001	5.33613E-008	0.00000E+000	1.60000E-001	1.43057E-003	6	...........	-327.66
	812	162.6	1.89995E-001	5.40559E-008	0.00000E+000	1.90000E-001	1.44369E-003	6	...........	-327.66
	815	163.2	2.19935E-001	5.46899E-008	0.00000E+000	2.20000E-001	1.43554E-003	6	...........	-327.66
	818	163.8	2.50009E-001	5.53986E-008	0.00000E+000	2.50000E-001	1.43969E-003	6	...........	-327.66
	821	164.4	2.79962E-001	5.60159E-008	0.00000E+000	2.80000E-001	1.44909E-003	6	...........	-327.66
	824	165	3.09977E-001	5.67048E-008	0.00000E+000	3.10000E-001	1.43739E-003	6	...........	-327.66
	827	165.6	3.39979E-001	5.74908E-008	0.00000E+000	3.40000E-001	1.43894E-003	6	...........	-327.66
	830	166.2	3.69972E-001	5.84456E-008	0.00000E+000	3.70000E-001	1.45026E-003	6	...........	-327.66
	833	166.8	3.99946E-001	5.93342E-008	0.00000E+000	4.00000E-001	1.43599E-003	6	...........	-327.66
	836	167.4	4.29979E-001	6.02683E-008	0.00000E+000	4.30000E-001	1.43842E-003	6	...........	-327.66
	839	168	4.59965E-001	6.15607E-008	0.00000E+000	4.60000E-001	1.43391E-003	6	...........	-327.66
	842	168.6	4.89949E-001	6.29675E-008	0.00000E+000	4.90000E-001	1.43407E-003	6	...........	-327.66
	845	169.2	5.19943E-001	6.46741E-008	0.00000E+000	5.20000E-001	1.44229E-003	6	...........	-327.66
	848	169.8	5.49970E-001	6.67933E-008	0.00000E+000	5.50000E-001	1.44139E-003	6	...........	-327.66
	851	170.4	5.79973E-001	6.96790E-008	0.00000E+000	5.80000E-001	1.43961E-003	6	...........	-327.66
	853	170.8	5.99958E-001	7.23961E-008	0.00000E+000	6.00000E-001	1.44578E-003	6	...........	-327.66
CURVE4	TABLE
	Pt	T	Vf	Im	Vu	Sig	Ach	IERange	Over	Temp
	#	s	V vs. Ref.	A	V	V	V	#	bits	deg C
	854	171	5.89980E-001	-8.70961E-009	0.00000E+000	5.90000E-001	1.44041E-003	6	...........	-327.66
	855	171.2	5.79992E-001	-1.55396E-008	0.00000E+000	5.80000E-001	1.44082E-003	6	...........	-327.66
	856	171.4	5.69977E-001	-1.97144E-008	0.00000E+000	5.70000E-001	1.42559E-003	6	...........	-327.66
	857	171.6	5.59954E-001	-2.27221E-008	0.00000E+000	5.60000E-001	1.42597E-003	6	...........	-327.66
	858	171.8	5.49982E-001	-2.49287E-008	0.00000E+000	5.50000E-001	1.44034E-003	6	...........	-327.66
	859	172	5.39995E-001	-2.66804E-008	0.00000E+000	5.40000E-001	1.43134E-003	6	...........	-327.66
	860	172.2	5.30000E-001	-2.79742E-008	0.00000E+000	5.30000E-001	1.44042E-003	6	...........	-327.66
	861	172.4	5.19980E-001	-2.90628E-008	0.00000E+000	5.20000E-001	1.43892E-003	6	...........	-327.66
	862	172.6	5.09964E-001	-2.99485E-008	0.00000E+000	5.10000E-001	1.43996E-003	6	...........	-327.66
	863	172.8	5.00005E-001	-3.06980E-008	0.00000E+000	5.00000E-001	1.44609E-003	6	...........	-327.66
	864	173	4.89966E-001	-3.13697E-008	0.00000E+000	4.90000E-001	1.42449E-003	6	...........	-327.66
	865	173.2	4.79966E-001	-3.19995E-008	0.00000E+000	4.80000E-001	1.42934E-003	6	...........	-327.66
	866	173.4	4.69967E-001	-3.24741E-008	0.00000E+000	4.70000E-001	1.42652E-003	6	...........	-327.66
	867	173.6	4.59994E-001	-3.29986E-008	0.00000E+000	4.60000E-001	1.43209E-003	6	...........	-327.66
	868	173.8	4.50038E-001	-3.33729E-008	0.00000E+000	4.50000E-001	1.43340E-003	6	...........	-327.66
	869	174	4.39938E-001	-3.38316E-008	0.00000E+000	4.40000E-001	1.43689E-003	6	...........	-327.66
	870	174.2	4.29991E-001	-3.41487E-008	0.00000E+000	4.30000E-001	1.43789E-003	6	...........	-327.66
	871	174.4	4.20038E-001	-3.44690E-008	0.00000E+000	4.20000E-001	1.42997E-003	6	...........	-327.66
	872	174.6	4.09976E-001	-3.47387E-008	0.00000E+000	4.10000E-001	1.42208E-003	6	...........	-327.66
	873	174.8	3.99965E-001	-3.50581E-008	0.00000E+000	4.00000E-001	1.42790E-003	6	...........	-327.66
	874	175	3.89985E-001	-3.53647E-008	0.00000E+000	3.90000E-001	1.43441E-003	6	...........	-327.66
	875	175.2	3.79998E-001	-3.55962E-008	0.00000E+000	3.80000E-001	1.42534E-003	6	...........	-327.66
	876	175.4	3.70028E-001	-3.57579E-008	0.00000E+000	3.70000E-001	1.43747E-003	6	...........	-327.66
	877	175.6	3.59942E-001	-3.60771E-008	0.00000E+000	3.60000E-001	1.43334E-003	6	...........	-327.66
	878	175.8	3.50012E-001	-3.63303E-008	0.00000E+000	3.50000E-001	1.43564E-003	6	...........	-327.66
	879	176	3.40008E-001	-3.65363E-008	0.00000E+000	3.40000E-001	1.43384E-003	6	...........	-327.66
	880	176.2	3.30009E-001	-3.66905E-008	0.00000E+000	3.30000E-001	1.42040E-003	6	...........	-327.66
	881	176.4	3.19981E-001	-3.69713E-008	0.00000E+000	3.20000E-001	1.42765E-003	6	...........	-327.66
	882	176.6	3.09991E-001	-3.71701E-008	0.00000E+000	3.10000E-001	1.42627E-003	6	...........	-327.66
	883	176.8	2.99997E-001	-3.74016E-008	0.00000E+000	3.00000E-001	1.43100E-003	6	...........	-327.66
	884	177	2.90003E-001	-3.74767E-008	0.00000E+000	2.90000E-001	1.43766E-003	6	...........	-327.66
	885	177.2	2.79974E-001	-3.77000E-008	0.00000E+000	2.80000E-001	1.43856E-003	6	...........	-327.66
	886	177.4	2.70074E-001	-3.78323E-008	0.00000E+000	2.70000E-001	1.43094E-003	6	...........	-327.66
	887	177.6	2.60003E-001	-3.80913E-008	0.00000E+000	2.60000E-001	1.43654E-003	6	...........	-327.66
	888	177.8	2.50045E-001	-3.81140E-008	0.00000E+000	2.50000E-001	1.42912E-003	6	...........	-327.66
	889	178	2.40000E-001	-3.83656E-008	0.00000E+000	2.40000E-001	1.43037E-003	6	...........	-327.66
	890	178.2	2.29998E-001	-3.85411E-008	0.00000E+000	2.30000E-001	1.43210E-003	6	...........	-327.66
	891	178.4	2.19998E-001	-3.87320E-008	0.00000E+000	2.20000E-001	1.43009E-003	6	...........	-327.66
	892	178.6	2.09998E-001	-3.88451E-008	0.00000E+000	2.10000E-001	1.43345E-003	6	...........	-327.66
	893	178.8	1.99999E-001	-3.90157E-008	0.00000E+000	2.00000E-001	1.43449E-003	6	...........	-327.66
	894	179	1.90048E-001	-3.91751E-008	0.00000E+000	1.90000E-001	1.43887E-003	6	...........	-327.66
	895	179.2	1.80012E-001	-3.93811E-008	0.00000E+000	1.80000E-001	1.43651E-003	6	...........	-327.66
	896	179.4	1.70085E-001	-3.94626E-008	0.00000E+000	1.70000E-001	1.43709E-003	6	...........	-327.66
	897	179.6	1.60004E-001	-3.96499E-008	0.00000E+000	1.60000E-001	1.43267E-003	6	...........	-327.66
	898	179.8	1.50019E-001	-3.97872E-008	0.00000E+000	1.50000E-001	1.43491E-003	6	...........	-327.66
	899	180	1.40093E-001	-3.99928E-008	0.00000E+000	1.40000E-001	1.43831E-003	6	...........	-327.66
	900	180.2	1.30037E-001	-4.00849E-008	0.00000E+000	1.30000E-001	1.43357E-003	6	...........	-327.66