File: Test_Data_Files/20250424_K_CHI105_12,5umAu_E000_PBSarg_CV100.DTA
EXPLAIN
TAG	CV
TITLE	LABEL	Cyclic Voltammetry	Test &Identifier
DATE	LABEL	4/24/2025	Date
TIME	LABEL	13:35:30	Time
NOTES	NOTES	3	&Notes...

PSTAT	PSTAT	IFC1010-32247	Potentiostat
VINIT	POTEN	0.00000E+000	T	Initial &E (V)
VLIMIT1	POTEN	-6.00000E-001	F	Scan Limit &1 (V)
VLIMIT2	POTEN	8.00000E-001	F	Scan Limit &2 (V)
VFINAL	POTEN	0.00000E+000	T	Final &E (V)
SCANRATE	QUANT	9.99998E+001	&Scan Rate (mV/s)
STEPSIZE	QUANT	1.00000E+001	St&ep Size (mV)
CYCLES	IQUANT	3	C&ycles (#)
IMODE	SELECTOR	1	I/E Range &Mode
IRANGE	QUANT	1.00000E-008	&Max Current (mA)
AREA	QUANT	1.00000E+000	Electrode &Area (cm^2)
ELECTRODETYPE	SELECTOR	0	Electrode Type
STRIPPING	TOGGLE	F	Used for Stripping
CONDIT	TWOPARAM	F	1.50000E+001	0.00000E+000	Conditionin&g	Time(s)	E(V)
DELAY	TWOPARAM	T	1.50000E+001	0.00000E+000	Init. De&lay	Time(s)	Stab.(mV/s)
EQDELAY	QUANT	0.00000E+000	Equil. &Time (s)
IRCOMP	SELECTOR	0	IRCom&p
PFCOR	QUANT	5.00000E+001	PF Corr. (ohm)
SAMPLINGMODE	SELECTOR	2	Sampling &Mode
OCVCURVE	TABLE	58
	Pt	T	Vf	Vm	Ach	Over	Temp
	#	s	V vs. Ref.	V	V	bits	deg C
	0	0.258333	3.31310E-001	3.31310E-001	0.00000E+000	...........	1367.65
	1	0.516667	3.31339E-001	3.32802E-001	0.00000E+000	...........	1367.65
	2	0.775	3.31515E-001	3.34294E-001	0.00000E+000	...........	1367.65
	3	1.03333	3.32021E-001	3.35806E-001	0.00000E+000	...........	1367.65
	4	1.29167	3.32947E-001	3.37509E-001	0.00000E+000	...........	1367.65
	5	1.55	3.34233E-001	3.39408E-001	0.00000E+000	...........	1367.65
	6	1.80833	3.35773E-001	3.41507E-001	0.00000E+000	...........	1367.65
	7	2.06667	3.37500E-001	3.43699E-001	0.00000E+000	...........	1367.65
	8	2.325	3.39385E-001	3.45672E-001	0.00000E+000	...........	1367.65
	9	2.58333	3.41377E-001	3.47237E-001	0.00000E+000	...........	1367.65
	10	2.84167	3.43376E-001	3.48736E-001	0.00000E+000	...........	1367.65
	11	3.1	3.45266E-001	3.50114E-001	0.00000E+000	...........	1367.65
	12	3.35833	3.46982E-001	3.51255E-001	0.00000E+000	...........	1367.65
	13	3.61667	3.48515E-001	3.52359E-001	0.00000E+000	...........	1367.65
	14	3.875	3.49893E-001	3.54043E-001	0.00000E+000	...........	1367.65
	15	4.13333	3.51203E-001	3.55903E-001	0.00000E+000	...........	1367.65
	16	4.39167	3.52577E-001	3.57879E-001	0.00000E+000	...........	1367.65
	17	4.65	3.54119E-001	3.59721E-001	0.00000E+000	...........	1367.69
	18	4.90833	3.55835E-001	3.61370E-001	0.00000E+000	...........	1367.74
	19	5.16667	3.57650E-001	3.63318E-001	0.00000E+000	...........	1367.74
	20	5.425	3.59494E-001	3.65516E-001	0.00000E+000	...........	1367.74
	21	5.68333	3.61364E-001	3.67288E-001	0.00000E+000	...........	1367.65
	22	5.94167	3.63270E-001	3.68864E-001	0.00000E+000	...........	1367.65
	23	6.2	3.65168E-001	3.70446E-001	0.00000E+000	...........	1367.65
	24	6.45833	3.66990E-001	3.72301E-001	0.00000E+000	...........	1367.65
	25	6.71667	3.68734E-001	3.74206E-001	0.00000E+000	...........	1367.65
	26	6.975	3.70462E-001	3.76072E-001	0.00000E+000	...........	1367.65
	27	7.23333	3.72233E-001	3.77927E-001	0.00000E+000	...........	1367.65
	28	7.49167	3.74054E-001	3.79611E-001	0.00000E+000	...........	1367.65
	29	7.75	3.75883E-001	3.81054E-001	0.00000E+000	...........	1367.65
	30	8.00833	3.77652E-001	3.82090E-001	0.00000E+000	...........	1367.65
	31	8.26667	3.79274E-001	3.82942E-001	0.00000E+000	...........	1367.65
	32	8.525	3.80685E-001	3.84061E-001	0.00000E+000	...........	1367.65
	33	8.78333	3.81895E-001	3.85366E-001	0.00000E+000	...........	1367.65
	34	9.04167	3.83005E-001	3.86743E-001	0.00000E+000	...........	1367.65
	35	9.3	3.84135E-001	3.88141E-001	0.00000E+000	...........	1367.65
	36	9.5583	3.85349E-001	3.89318E-001	0.00000E+000	...........	1367.65
	37	9.8167	3.86634E-001	3.90623E-001	0.00000E+000	...........	1367.65
	38	10.075	3.87943E-001	3.92028E-001	0.00000E+000	...........	1367.65
	39	10.3333	3.89257E-001	3.93471E-001	0.00000E+000	...........	1367.65
	40	10.5917	3.90592E-001	3.95035E-001	0.00000E+000	...........	1367.65
	41	10.85	3.91984E-001	3.96990E-001	0.00000E+000	...........	1367.65
	42	11.1083	3.93476E-001	3.98811E-001	0.00000E+000	...........	1367.65
	43	11.3667	3.95097E-001	4.00511E-001	0.00000E+000	...........	1367.65
	44	11.625	3.96820E-001	4.02140E-001	0.00000E+000	...........	1367.65
	45	11.8833	3.98578E-001	4.03755E-001	0.00000E+000	...........	1367.31
	46	12.1417	4.00312E-001	4.05614E-001	0.00000E+000	...........	1367.31
	47	12.4	4.02021E-001	4.07494E-001	0.00000E+000	...........	1367.31
	48	12.6583	4.03745E-001	4.09241E-001	0.00000E+000	...........	1367.26
	49	12.9167	4.05508E-001	4.11009E-001	0.00000E+000	...........	1367.22
	50	13.175	4.07304E-001	4.13120E-001	0.00000E+000	...........	1367.22
	51	13.4333	4.09138E-001	4.15410E-001	0.00000E+000	...........	1367.22
	52	13.6917	4.11055E-001	4.17608E-001	0.00000E+000	...........	1367.57
	53	13.95	4.13083E-001	4.19525E-001	0.00000E+000	...........	1367.57
	54	14.2083	4.15184E-001	4.21361E-001	0.00000E+000	...........	1367.57
	55	14.4667	4.17269E-001	4.23127E-001	0.00000E+000	...........	1367.57
	56	14.725	4.19275E-001	4.25334E-001	0.00000E+000	...........	1367.65
	57	14.9833	4.21228E-001	4.27744E-001	0.00000E+000	...........	1367.65
EOC	QUANT	0.4212279	Open Circuit (V)
PSTATMODEL	IQUANT	64	Pstat Model
PSTATSECTION	LABEL	IFC1010-32247	Pstat Section
PSTATSERIALNO	LABEL	32247	Pstat Serial Number
CTRLMODE	IQUANT	1	Control Mode
ELECTROMETER	IQUANT	0	RE=0 or CS=1
IESTAB	IQUANT	2	I/E Stability
CASPEED	IQUANT	4	Control Amp Speed
CONVENTION	IQUANT	1	Current Convention
ICHRANGE	IQUANT	2	Ich Range
ICHRANGEMODE	TOGGLE	F	Ich Auto Range
ICHOFFSETENABLE	TOGGLE	F	Ich Offset Enable
ICHOFFSET	QUANT	0	Ich Offset (V)
ICHFILTER	IQUANT	3	Ich Filter
VCHRANGE	IQUANT	2	Vch Range
VCHRANGEMODE	TOGGLE	F	Vch Auto Range
VCHOFFSETENABLE	TOGGLE	F	Vch Offset Enable
VCHOFFSET	QUANT	0	Vch Offset (V)
VCHFILTER	IQUANT	3	Vch Filter
IERANGELOWERLIMIT	IQUANT	4	I/E Range Lower Limit
IERANGEMODE	TOGGLE	F	I/E AutoRange
IERANGE	IQUANT	4	I/E Range
ACHSELECT	IQUANT	0	Ach Select
ACHRANGE	IQUANT	2	Ach Range
ACHOFFSETENABLE	TOGGLE	F	Ach Offset Enable
ACHOFFSET	QUANT	0	Ach Offset (V)
ACHFILTER	IQUANT	1	Ach Filter
SENSECABLEID	IQUANT	14	Sense Cable ID
PWRCABLEID	IQUANT	14	Power Cable ID
DCCALDATE	LABEL	11/18/2024	DC Calibration Date
ACCALDATE	LABEL	4/18/2022	AC Calibration Date
FRAMEWORKVERSION	LABEL	7.10.3	Framework Version
INSTRUMENTVERSION	LABEL	4.91	Instrument Version
COMMVERSION	LABEL	3.10	Communications Version
CPUPLDVERSION	LABEL	2.22	CPU PLD Version
CTRLPLDVERSION	LABEL	0.00	CTRL PLD Version
PSTATPLDVERSION	LABEL	0.00	PSTAT PLD Version
CURVE1	TABLE
	Pt	T	Vf	Im	Vu	Sig	Ach	IERange	Over	Temp
	#	s	V vs. Ref.	A	V	V	V	#	bits	deg C
	0	0.1	4.21304E-001	-1.42727E-011	0.00000E+000	4.21241E-001	0.00000E+000	4	...........	1367.65
	3	0.4	3.91326E-001	-3.63762E-011	0.00000E+000	3.91249E-001	0.00000E+000	4	...........	1367.65
	6	0.7	3.61274E-001	-4.63878E-011	0.00000E+000	3.61207E-001	0.00000E+000	4	...........	1367.65
	9	1	3.31291E-001	-5.61015E-011	0.00000E+000	3.31214E-001	0.00000E+000	4	...........	1367.58
	12	1.3	3.01316E-001	-6.35665E-011	0.00000E+000	3.01222E-001	0.00000E+000	4	...........	1367.57
	15	1.6	2.71306E-001	-6.99883E-011	0.00000E+000	2.71230E-001	0.00000E+000	4	...........	1367.57
	18	1.9	2.41306E-001	-7.52051E-011	0.00000E+000	2.41237E-001	0.00000E+000	4	...........	1367.57
	21	2.2	2.11309E-001	-7.97329E-011	0.00000E+000	2.11245E-001	0.00000E+000	4	...........	1366.62
	24	2.5	1.81333E-001	-8.39282E-011	0.00000E+000	1.81253E-001	0.00000E+000	4	...........	1366.62
	27	2.8	1.51271E-001	-8.77133E-011	0.00000E+000	1.51210E-001	0.00000E+000	4	...........	1366.62
	30	3.1	1.21289E-001	-9.12108E-011	0.00000E+000	1.21218E-001	0.00000E+000	4	...........	1366.62
	33	3.4	9.12877E-002	-9.54151E-011	0.00000E+000	9.12256E-002	0.00000E+000	4	...........	1366.62
	36	3.7	6.12863E-002	-1.00280E-010	0.00000E+000	6.12333E-002	0.00000E+000	4	...........	1366.62
	39	4	3.13148E-002	-1.05499E-010	0.00000E+000	3.12410E-002	0.00000E+000	4	...........	1366.70
	42	4.3	1.31541E-003	-1.11463E-010	0.00000E+000	1.24865E-003	0.00000E+000	4	...........	1366.71
	45	4.6	-2.87656E-002	-1.17226E-010	0.00000E+000	-2.87937E-002	0.00000E+000	4	...........	1366.71
	48	4.9	-5.87587E-002	-1.22702E-010	0.00000E+000	-5.87860E-002	0.00000E+000	4	...........	1366.71
	51	5.2	-8.87492E-002	-1.28683E-010	0.00000E+000	-8.87783E-002	0.00000E+000	4	...........	1367.05
	54	5.5	-1.18725E-001	-1.33928E-010	0.00000E+000	-1.18771E-001	0.00000E+000	4	...........	1367.05
	57	5.8	-1.48728E-001	-1.39468E-010	0.00000E+000	-1.48763E-001	0.00000E+000	4	...........	1367.05
	60	6.1	-1.78713E-001	-1.46041E-010	0.00000E+000	-1.78755E-001	0.00000E+000	4	...........	1366.62
	63	6.4	-2.08713E-001	-1.53313E-010	0.00000E+000	-2.08748E-001	0.00000E+000	4	...........	1366.62
	66	6.7	-2.38748E-001	-1.59454E-010	0.00000E+000	-2.38790E-001	0.00000E+000	4	...........	1366.62
	69	7	-2.68747E-001	-1.66104E-010	0.00000E+000	-2.68782E-001	0.00000E+000	4	...........	1366.55
	72	7.3	-2.98752E-001	-1.70875E-010	0.00000E+000	-2.98775E-001	0.00000E+000	4	...........	1366.54
	75	7.6	-3.28720E-001	-1.75999E-010	0.00000E+000	-3.28767E-001	0.00000E+000	4	...........	1366.54
	78	7.9	-3.58713E-001	-1.80218E-010	0.00000E+000	-3.58759E-001	0.00000E+000	4	...........	1366.54
	81	8.2	-3.88717E-001	-1.83930E-010	0.00000E+000	-3.88752E-001	0.00000E+000	4	...........	1366.54
	84	8.5	-4.18757E-001	-1.88875E-010	0.00000E+000	-4.18794E-001	0.00000E+000	4	...........	1366.54
	87	8.8	-4.48780E-001	-1.93383E-010	0.00000E+000	-4.48786E-001	0.00000E+000	4	...........	1366.54
	90	9.1	-4.78758E-001	-1.99465E-010	0.00000E+000	-4.78778E-001	0.00000E+000	4	...........	1366.62
	93	9.4	-5.08741E-001	-2.04704E-010	0.00000E+000	-5.08771E-001	0.00000E+000	4	...........	1366.62
	96	9.7	-5.38735E-001	-2.12145E-010	0.00000E+000	-5.38763E-001	0.00000E+000	4	...........	1366.62
	99	10	-5.68725E-001	-2.19139E-010	0.00000E+000	-5.68755E-001	0.00000E+000	4	...........	1366.62
	102	10.3	-5.98726E-001	-2.27772E-010	0.00000E+000	-5.98748E-001	0.00000E+000	4	...........	1366.62
	105	10.6	-5.68787E-001	-1.63816E-010	0.00000E+000	-5.68755E-001	0.00000E+000	4	...........	1366.62
	108	10.9	-5.38793E-001	-1.29228E-010	0.00000E+000	-5.38763E-001	0.00000E+000	4	...........	1366.62
	111	11.2	-5.08780E-001	-1.01448E-010	0.00000E+000	-5.08771E-001	0.00000E+000	4	...........	1366.62
	114	11.5	-4.78816E-001	-7.79889E-011	0.00000E+000	-4.78778E-001	0.00000E+000	4	...........	1366.62
	117	11.8	-4.48827E-001	-5.84286E-011	0.00000E+000	-4.48786E-001	0.00000E+000	4	...........	1366.62
	120	12.1	-4.18822E-001	-3.92566E-011	0.00000E+000	-4.18794E-001	0.00000E+000	4	...........	1366.54
	123	12.4	-3.88761E-001	-2.70808E-011	0.00000E+000	-3.88752E-001	0.00000E+000	4	...........	1366.54
	126	12.7	-3.58761E-001	-1.56697E-011	0.00000E+000	-3.58759E-001	0.00000E+000	4	...........	1366.54
	129	13	-3.28770E-001	-5.11772E-012	0.00000E+000	-3.28767E-001	0.00000E+000	4	...........	1366.62
	132	13.3	-2.98792E-001	6.24639E-012	0.00000E+000	-2.98775E-001	0.00000E+000	4	...........	1366.62
	135	13.6	-2.68790E-001	1.66304E-011	0.00000E+000	-2.68782E-001	0.00000E+000	4	...........	1366.62
	138	13.9	-2.38798E-001	2.66961E-011	0.00000E+000	-2.38790E-001	0.00000E+000	4	...........	1366.62
	141	14.2	-2.08775E-001	3.46065E-011	0.00000E+000	-2.08748E-001	0.00000E+000	4	...........	1366.62
	144	14.5	-1.78754E-001	4.09316E-011	0.00000E+000	-1.78755E-001	0.00000E+000	4	...........	1366.62
	147	14.8	-1.48779E-001	4.63674E-011	0.00000E+000	-1.48763E-001	0.00000E+000	4	...........	1366.62
	150	15.1	-1.18777E-001	5.03958E-011	0.00000E+000	-1.18771E-001	0.00000E+000	4	...........	1366.62
	153	15.4	-8.87756E-002	5.40979E-011	0.00000E+000	-8.87783E-002	0.00000E+000	4	...........	1366.62
	156	15.7	-5.87987E-002	5.77386E-011	0.00000E+000	-5.87860E-002	0.00000E+000	4	...........	1366.62
	159	16	-2.88167E-002	6.16288E-011	0.00000E+000	-2.87937E-002	0.00000E+000	4	...........	1366.62
	162	16.3	1.27527E-003	6.48227E-011	0.00000E+000	1.24865E-003	0.00000E+000	4	...........	1366.62
	165	16.6	3.12652E-002	6.84904E-011	0.00000E+000	3.12410E-002	0.00000E+000	4	...........	1366.62
	168	16.9	6.12472E-002	7.18618E-011	0.00000E+000	6.12333E-002	0.00000E+000	4	...........	1366.62
	171	17.2	9.12467E-002	7.52366E-011	0.00000E+000	9.12256E-002	0.00000E+000	4	...........	1366.62
	174	17.5	1.21248E-001	7.86757E-011	0.00000E+000	1.21218E-001	0.00000E+000	4	...........	1366.62
	177	17.8	1.51213E-001	8.19837E-011	0.00000E+000	1.51210E-001	0.00000E+000	4	...........	1366.62
	180	18.1	1.81276E-001	8.52485E-011	0.00000E+000	1.81253E-001	0.00000E+000	4	...........	1366.54
	183	18.4	2.11258E-001	8.89288E-011	0.00000E+000	2.11245E-001	0.00000E+000	4	...........	1366.54
	186	18.7	2.41259E-001	9.27944E-011	0.00000E+000	2.41237E-001	0.00000E+000	4	...........	1366.54
	189	19	2.71254E-001	9.44565E-011	0.00000E+000	2.71230E-001	0.00000E+000	4	...........	1366.54
	192	19.3	3.01265E-001	9.51161E-011	0.00000E+000	3.01222E-001	0.00000E+000	4	...........	1366.54
	195	19.6	3.31241E-001	9.53715E-011	0.00000E+000	3.31214E-001	0.00000E+000	4	...........	1366.54
	198	19.9	3.61246E-001	9.51947E-011	0.00000E+000	3.61207E-001	0.00000E+000	4	...........	1366.54
	201	20.2	3.91280E-001	9.53321E-011	0.00000E+000	3.91249E-001	0.00000E+000	4	...........	1366.54
	204	20.5	4.21287E-001	9.45537E-011	0.00000E+000	4.21241E-001	0.00000E+000	4	...........	1366.54
	207	20.8	4.51276E-001	9.29872E-011	0.00000E+000	4.51233E-001	0.00000E+000	4	...........	1366.54
	210	21.1	4.81279E-001	9.10965E-011	0.00000E+000	4.81226E-001	0.00000E+000	4	...........	1366.54
	213	21.4	5.11267E-001	8.92153E-011	0.00000E+000	5.11218E-001	0.00000E+000	4	...........	1366.54
	216	21.7	5.41272E-001	9.03165E-011	0.00000E+000	5.41210E-001	0.00000E+000	4	...........	1366.54
	219	22	5.71317E-001	8.99399E-011	0.00000E+000	5.71253E-001	0.00000E+000	4	...........	1366.54
	222	22.3	6.01316E-001	8.88895E-011	0.00000E+000	6.01245E-001	0.00000E+000	4	...........	1366.54
	225	22.6	6.31311E-001	8.82853E-011	0.00000E+000	6.31237E-001	0.00000E+000	4	...........	1366.54
	228	22.9	6.61295E-001	8.80662E-011	0.00000E+000	6.61230E-001	0.00000E+000	4	...........	1366.54
	231	23.2	6.91307E-001	8.89848E-011	0.00000E+000	6.91222E-001	0.00000E+000	4	...........	1366.54
	234	23.5	7.21286E-001	9.13380E-011	0.00000E+000	7.21214E-001	0.00000E+000	4	...........	1366.54
	237	23.8	7.51272E-001	9.62059E-011	0.00000E+000	7.51207E-001	0.00000E+000	4	...........	1366.54
	240	24.1	7.81330E-001	1.08723E-010	0.00000E+000	7.81249E-001	0.00000E+000	4	...........	1366.54
	242	24.3	8.01330E-001	1.28077E-010	0.00000E+000	8.01244E-001	0.00000E+000	4	...........	1366.54
CURVE2	TABLE
	Pt	T	Vf	Im	Vu	Sig	Ach	IERange	Over	Temp
	#	s	V vs. Ref.	A	V	V	V	#	bits	deg C
	243	24.4	7.90128E-001	9.33589E-011	0.00000E+000	7.89997E-001	0.00000E+000	4	...........	1366.54
	246	24.7	7.60121E-001	5.72959E-011	0.00000E+000	7.60004E-001	0.00000E+000	4	...........	1366.54
	249	25	7.30148E-001	4.07114E-011	0.00000E+000	7.30012E-001	0.00000E+000	4	...........	1366.54
	252	25.3	7.00121E-001	2.83146E-011	0.00000E+000	7.00020E-001	0.00000E+000	4	...........	1366.54
	255	25.6	6.70092E-001	1.84609E-011	0.00000E+000	6.69977E-001	0.00000E+000	4	...........	1366.54
	258	25.9	6.40099E-001	9.20440E-012	0.00000E+000	6.39985E-001	0.00000E+000	4	...........	1366.54
	261	26.2	6.10101E-001	3.06735E-012	0.00000E+000	6.09993E-001	0.00000E+000	4	...........	1366.54
	264	26.5	5.80113E-001	-2.82142E-012	0.00000E+000	5.80001E-001	0.00000E+000	4	...........	1366.54
	267	26.8	5.50109E-001	-9.86165E-012	0.00000E+000	5.50008E-001	0.00000E+000	4	...........	1366.54
	270	27.1	5.20120E-001	-1.71498E-011	0.00000E+000	5.20016E-001	0.00000E+000	4	...........	1366.54
	273	27.4	4.90149E-001	-2.21576E-011	0.00000E+000	4.90024E-001	0.00000E+000	4	...........	1366.54
	276	27.7	4.60074E-001	-3.10055E-011	0.00000E+000	4.59981E-001	0.00000E+000	4	...........	1366.54
	279	28	4.30093E-001	-3.89949E-011	0.00000E+000	4.29989E-001	0.00000E+000	4	...........	1366.62
	282	28.3	4.00097E-001	-4.79501E-011	0.00000E+000	3.99997E-001	0.00000E+000	4	...........	1366.62
	285	28.6	3.70087E-001	-5.50880E-011	0.00000E+000	3.70004E-001	0.00000E+000	4	...........	1366.62
	288	28.9	3.40101E-001	-6.18110E-011	0.00000E+000	3.40012E-001	0.00000E+000	4	...........	1366.62
	291	29.2	3.10116E-001	-6.72594E-011	0.00000E+000	3.10020E-001	0.00000E+000	4	...........	1366.62
	294	29.5	2.80046E-001	-7.26025E-011	0.00000E+000	2.79977E-001	0.00000E+000	4	...........	1366.62
	297	29.8	2.50069E-001	-7.78667E-011	0.00000E+000	2.49985E-001	0.00000E+000	4	...........	1366.62
	300	30.1	2.20063E-001	-8.28082E-011	0.00000E+000	2.19993E-001	0.00000E+000	4	...........	1366.54
	303	30.4	1.90063E-001	-8.72380E-011	0.00000E+000	1.90000E-001	0.00000E+000	4	...........	1366.54
	306	30.7	1.60066E-001	-9.08900E-011	0.00000E+000	1.60008E-001	0.00000E+000	4	...........	1366.54
	309	31	1.30089E-001	-9.46409E-011	0.00000E+000	1.30016E-001	0.00000E+000	4	...........	1366.62
	312	31.3	1.00072E-001	-9.81351E-011	0.00000E+000	1.00023E-001	0.00000E+000	4	...........	1366.62
	315	31.6	7.00629E-002	-1.02496E-010	0.00000E+000	6.99811E-002	0.00000E+000	4	...........	1366.62
	318	31.9	4.00670E-002	-1.07350E-010	0.00000E+000	3.99887E-002	0.00000E+000	4	...........	1366.62
	321	32.2	1.00476E-002	-1.12433E-010	0.00000E+000	9.99641E-003	0.00000E+000	4	...........	1366.62
[...]
	658	65.9	-5.59966E-001	-1.87855E-010	0.00000E+000	-5.60008E-001	0.00000E+000	4	...........	1366.62
	661	66.2	-5.89987E-001	-1.93183E-010	0.00000E+000	-5.90000E-001	0.00000E+000	4	...........	1366.62
	664	66.5	-5.80028E-001	-1.55391E-010	0.00000E+000	-5.80003E-001	0.00000E+000	4	...........	1366.62
	667	66.8	-5.50022E-001	-1.28639E-010	0.00000E+000	-5.50010E-001	0.00000E+000	4	...........	1366.62
	670	67.1	-5.20021E-001	-1.08001E-010	0.00000E+000	-5.20018E-001	0.00000E+000	4	...........	1366.62
	673	67.4	-4.89995E-001	-8.95081E-011	0.00000E+000	-4.89976E-001	0.00000E+000	4	...........	1366.62
	676	67.7	-4.60016E-001	-7.11471E-011	0.00000E+000	-4.59983E-001	0.00000E+000	4	...........	1366.62
	679	68	-4.30002E-001	-5.53833E-011	0.00000E+000	-4.29991E-001	0.00000E+000	4	...........	1366.62
	682	68.3	-4.00017E-001	-4.04317E-011	0.00000E+000	-3.99999E-001	0.00000E+000	4	...........	1366.62
	685	68.6	-3.70013E-001	-2.28965E-011	0.00000E+000	-3.70006E-001	0.00000E+000	4	...........	1366.62
	688	68.9	-3.40037E-001	-7.14752E-012	0.00000E+000	-3.40014E-001	0.00000E+000	4	...........	1366.62
	691	69.2	-3.10028E-001	5.12730E-012	0.00000E+000	-3.10022E-001	0.00000E+000	4	...........	1366.62
	694	69.5	-2.79993E-001	1.33718E-011	0.00000E+000	-2.79979E-001	0.00000E+000	4	...........	1366.62
	697	69.8	-2.49991E-001	1.98971E-011	0.00000E+000	-2.49987E-001	0.00000E+000	4	...........	1366.62
	700	70.1	-2.20015E-001	2.77659E-011	0.00000E+000	-2.19995E-001	0.00000E+000	4	...........	1366.62
	703	70.4	-1.90007E-001	3.50193E-011	0.00000E+000	-1.90002E-001	0.00000E+000	4	...........	1366.62
	706	70.7	-1.60012E-001	4.21573E-011	0.00000E+000	-1.60010E-001	0.00000E+000	4	...........	1366.62
	709	71	-1.30037E-001	4.74850E-011	0.00000E+000	-1.30018E-001	0.00000E+000	4	...........	1366.62
	712	71.3	-9.99886E-002	5.09581E-011	0.00000E+000	-9.99754E-002	0.00000E+000	4	...........	1366.62
	715	71.6	-6.99918E-002	5.46402E-011	0.00000E+000	-6.99831E-002	0.00000E+000	4	...........	1366.62
	718	71.9	-4.00058E-002	5.77553E-011	0.00000E+000	-3.99908E-002	0.00000E+000	4	...........	1366.62
	721	72.2	-1.00058E-002	6.05374E-011	0.00000E+000	-9.99847E-003	0.00000E+000	4	...........	1366.62
	724	72.5	2.00074E-002	6.33405E-011	0.00000E+000	1.99939E-002	0.00000E+000	4	...........	1366.62
	727	72.8	5.00021E-002	6.56152E-011	0.00000E+000	4.99862E-002	0.00000E+000	4	...........	1366.62
	730	73.1	7.99909E-002	6.77100E-011	0.00000E+000	7.99785E-002	0.00000E+000	4	...........	1366.62
	733	73.4	1.10053E-001	6.98275E-011	0.00000E+000	1.10021E-001	0.00000E+000	4	...........	1366.62
	736	73.7	1.40025E-001	7.23496E-011	0.00000E+000	1.40013E-001	0.00000E+000	4	...........	1366.62
	739	74	1.70033E-001	7.41192E-011	0.00000E+000	1.70005E-001	0.00000E+000	4	...........	1366.71
	742	74.3	2.00018E-001	7.65665E-011	0.00000E+000	1.99998E-001	0.00000E+000	4	...........	1366.71
	745	74.6	2.30037E-001	7.94918E-011	0.00000E+000	2.29990E-001	0.00000E+000	4	...........	1366.71
	748	74.9	2.60004E-001	8.07500E-011	0.00000E+000	2.59982E-001	0.00000E+000	4	...........	1366.71
	751	75.2	2.90055E-001	8.02546E-011	0.00000E+000	2.90025E-001	0.00000E+000	4	...........	1366.71
	754	75.5	3.20056E-001	7.94924E-011	0.00000E+000	3.20017E-001	0.00000E+000	4	...........	1366.71
	757	75.8	3.50054E-001	7.89488E-011	0.00000E+000	3.50009E-001	0.00000E+000	4	...........	1366.71
	760	76.1	3.80044E-001	7.70905E-011	0.00000E+000	3.80002E-001	0.00000E+000	4	...........	1366.71
	763	76.4	4.10036E-001	7.59643E-011	0.00000E+000	4.09994E-001	0.00000E+000	4	...........	1366.71
	766	76.7	4.40024E-001	7.43975E-011	0.00000E+000	4.39986E-001	0.00000E+000	4	...........	1366.71
	769	77	4.70023E-001	7.14257E-011	0.00000E+000	4.69979E-001	0.00000E+000	4	...........	1366.71
	772	77.3	5.00093E-001	7.06185E-011	0.00000E+000	5.00021E-001	0.00000E+000	4	...........	1366.71
	775	77.6	5.30081E-001	6.98649E-011	0.00000E+000	5.30013E-001	0.00000E+000	4	...........	1366.71
	778	77.9	5.60071E-001	6.78759E-011	0.00000E+000	5.60006E-001	0.00000E+000	4	...........	1366.71
	781	78.2	5.90079E-001	6.69793E-011	0.00000E+000	5.89998E-001	0.00000E+000	4	...........	1366.71
	784	78.5	6.20061E-001	6.54142E-011	0.00000E+000	6.19990E-001	0.00000E+000	4	...........	1366.71
	787	78.8	6.50064E-001	6.43233E-011	0.00000E+000	6.49983E-001	0.00000E+000	4	...........	1366.71
	790	79.1	6.80106E-001	6.39177E-011	0.00000E+000	6.80025E-001	0.00000E+000	4	...........	1366.71
	793	79.4	7.10108E-001	6.32597E-011	0.00000E+000	7.10017E-001	0.00000E+000	4	...........	1366.71
	796	79.7	7.40081E-001	6.63358E-011	0.00000E+000	7.40010E-001	0.00000E+000	4	...........	1366.71
	799	80	7.70093E-001	7.61554E-011	0.00000E+000	7.70002E-001	0.00000E+000	4	...........	1366.97
	802	80.3	8.00085E-001	9.97922E-011	0.00000E+000	7.99994E-001	0.00000E+000	4	...........	1366.97
CURVE4	TABLE
	Pt	T	Vf	Im	Vu	Sig	Ach	IERange	Over	Temp
	#	s	V vs. Ref.	A	V	V	V	#	bits	deg C
	803	80.4	7.90125E-001	6.91828E-011	0.00000E+000	7.89997E-001	0.00000E+000	4	...........	1366.97
	804	80.5	7.80107E-001	5.29573E-011	0.00000E+000	7.79999E-001	0.00000E+000	4	...........	1366.97
	805	80.6	7.70139E-001	4.24589E-011	0.00000E+000	7.70002E-001	0.00000E+000	4	...........	1366.97
	806	80.7	7.60130E-001	3.52329E-011	0.00000E+000	7.60004E-001	0.00000E+000	4	...........	1366.97
	807	80.8	7.50127E-001	2.91155E-011	0.00000E+000	7.50007E-001	0.00000E+000	4	...........	1366.97
	808	80.9	7.40109E-001	2.44026E-011	0.00000E+000	7.40010E-001	0.00000E+000	4	...........	1366.96
	809	81	7.30121E-001	2.11453E-011	0.00000E+000	7.30012E-001	0.00000E+000	4	...........	1366.88
	810	81.1	7.20122E-001	1.81356E-011	0.00000E+000	7.20015E-001	0.00000E+000	4	...........	1366.88
	811	81.2	7.10156E-001	1.55265E-011	0.00000E+000	7.10017E-001	0.00000E+000	4	...........	1366.88
	812	81.3	7.00139E-001	1.30550E-011	0.00000E+000	7.00020E-001	0.00000E+000	4	...........	1366.88
	813	81.4	6.90135E-001	1.07117E-011	0.00000E+000	6.90022E-001	0.00000E+000	4	...........	1366.88
	814	81.5	6.80166E-001	8.79327E-012	0.00000E+000	6.80025E-001	0.00000E+000	4	...........	1366.88
	815	81.6	6.70098E-001	6.03038E-012	0.00000E+000	6.69977E-001	0.00000E+000	4	...........	1366.88
	816	81.7	6.60100E-001	4.06807E-012	0.00000E+000	6.59980E-001	0.00000E+000	4	...........	1366.88
	817	81.8	6.50097E-001	2.61258E-012	0.00000E+000	6.49983E-001	0.00000E+000	4	...........	1366.88
	818	81.9	6.40085E-001	9.07529E-013	0.00000E+000	6.39985E-001	0.00000E+000	4	...........	1366.88
	819	82	6.30097E-001	-8.55150E-013	0.00000E+000	6.29988E-001	0.00000E+000	4	...........	1366.97
	820	82.1	6.20102E-001	-2.14049E-012	0.00000E+000	6.19990E-001	0.00000E+000	4	...........	1366.97
	821	82.2	6.10105E-001	-3.60238E-012	0.00000E+000	6.09993E-001	0.00000E+000	4	...........	1366.97
	822	82.3	6.00098E-001	-5.00721E-012	0.00000E+000	5.99995E-001	0.00000E+000	4	...........	1366.97
	823	82.4	5.90129E-001	-6.19719E-012	0.00000E+000	5.89998E-001	0.00000E+000	4	...........	1366.97
	824	82.5	5.80108E-001	-7.63144E-012	0.00000E+000	5.80001E-001	0.00000E+000	4	...........	1366.97
	825	82.6	5.70108E-001	-8.70126E-012	0.00000E+000	5.70003E-001	0.00000E+000	4	...........	1366.97
	826	82.7	5.60111E-001	-9.64056E-012	0.00000E+000	5.60006E-001	0.00000E+000	4	...........	1366.97
	827	82.8	5.50119E-001	-1.07418E-011	0.00000E+000	5.50008E-001	0.00000E+000	4	...........	1366.97
	828	82.9	5.40105E-001	-1.22572E-011	0.00000E+000	5.40011E-001	0.00000E+000	4	...........	1366.96
	829	83	5.30109E-001	-1.34872E-011	0.00000E+000	5.30013E-001	0.00000E+000	4	...........	1366.88
	830	83.1	5.20109E-001	-1.47892E-011	0.00000E+000	5.20016E-001	0.00000E+000	4	...........	1366.88
	831	83.2	5.10113E-001	-1.60636E-011	0.00000E+000	5.10018E-001	0.00000E+000	4	...........	1366.88
	832	83.3	5.00147E-001	-1.73864E-011	0.00000E+000	5.00021E-001	0.00000E+000	4	...........	1366.88
	833	83.4	4.90149E-001	-1.91246E-011	0.00000E+000	4.90024E-001	0.00000E+000	4	...........	1366.88
	834	83.5	4.80087E-001	-2.07803E-011	0.00000E+000	4.79976E-001	0.00000E+000	4	...........	1366.88
	835	83.6	4.70077E-001	-2.22416E-011	0.00000E+000	4.69979E-001	0.00000E+000	4	...........	1366.88
	836	83.7	4.60084E-001	-2.38448E-011	0.00000E+000	4.59981E-001	0.00000E+000	4	...........	1366.88
	837	83.8	4.50084E-001	-2.57154E-011	0.00000E+000	4.49984E-001	0.00000E+000	4	...........	1366.88
	838	83.9	4.40076E-001	-2.76679E-011	0.00000E+000	4.39986E-001	0.00000E+000	4	...........	1366.88
	839	84	4.30081E-001	-2.95519E-011	0.00000E+000	4.29989E-001	0.00000E+000	4	...........	1366.79
	840	84.1	4.20092E-001	-3.16865E-011	0.00000E+000	4.19991E-001	0.00000E+000	4	...........	1366.79