File: Test_Data_Files/20250424_C_CHI105_2mmAu_E000_PBSarg_CV50.DTA
EXPLAIN
TAG	CV
TITLE	LABEL	Cyclic Voltammetry	Test &Identifier
DATE	LABEL	4/24/2025	Date
TIME	LABEL	16:49:23	Time
NOTES	NOTES	3	&Notes...

PSTAT	PSTAT	IFC1010-32247	Potentiostat
VINIT	POTEN	0.00000E+000	T	Initial &E (V)
VLIMIT1	POTEN	-6.00000E-001	F	Scan Limit &1 (V)
VLIMIT2	POTEN	8.00000E-001	F	Scan Limit &2 (V)
VFINAL	POTEN	0.00000E+000	T	Final &E (V)
SCANRATE	QUANT	4.99999E+001	&Scan Rate (mV/s)
STEPSIZE	QUANT	1.00000E+001	St&ep Size (mV)
CYCLES	IQUANT	3	C&ycles (#)
IMODE	SELECTOR	1	I/E Range &Mode
IRANGE	QUANT	1.00000E-002	&Max Current (mA)
AREA	QUANT	1.00000E+000	Electrode &Area (cm^2)
ELECTRODETYPE	SELECTOR	0	Electrode Type
STRIPPING	TOGGLE	F	Used for Stripping
CONDIT	TWOPARAM	F	1.50000E+001	0.00000E+000	Conditionin&g	Time(s)	E(V)
DELAY	TWOPARAM	T	1.50000E+001	0.00000E+000	Init. De&lay	Time(s)	Stab.(mV/s)
EQDELAY	QUANT	0.00000E+000	Equil. &Time (s)
IRCOMP	SELECTOR	0	IRCom&p
PFCOR	QUANT	5.00000E+001	PF Corr. (ohm)
SAMPLINGMODE	SELECTOR	2	Sampling &Mode
OCVCURVE	TABLE	58
	Pt	T	Vf	Vm	Ach	Over	Temp
	#	s	V vs. Ref.	V	V	bits	deg C
	0	0.258333	3.41411E-001	3.41411E-001	0.00000E+000	...........	1368.00
	1	0.516667	3.41406E-001	3.41153E-001	0.00000E+000	...........	1368.00
	2	0.775	3.41375E-001	3.40883E-001	0.00000E+000	...........	1368.00
	3	1.03333	3.41287E-001	3.40619E-001	0.00000E+000	...........	1368.00
	4	1.29167	3.41124E-001	3.40364E-001	0.00000E+000	...........	1368.00
	5	1.55	3.40903E-001	3.40086E-001	0.00000E+000	...........	1368.00
	6	1.80833	3.40649E-001	3.39830E-001	0.00000E+000	...........	1368.00
	7	2.06667	3.40383E-001	3.39555E-001	0.00000E+000	...........	1368.00
	8	2.325	3.40115E-001	3.39318E-001	0.00000E+000	...........	1368.00
	9	2.58333	3.39850E-001	3.39060E-001	0.00000E+000	...........	1368.00
	10	2.84167	3.39589E-001	3.38782E-001	0.00000E+000	...........	1368.00
	11	3.1	3.39331E-001	3.38547E-001	0.00000E+000	...........	1368.00
	12	3.35833	3.39073E-001	3.38285E-001	0.00000E+000	...........	1368.00
	13	3.61667	3.38816E-001	3.38016E-001	0.00000E+000	...........	1368.00
	14	3.875	3.38559E-001	3.37757E-001	0.00000E+000	...........	1368.00
	15	4.13333	3.38300E-001	3.37503E-001	0.00000E+000	...........	1368.00
	16	4.39167	3.38040E-001	3.37259E-001	0.00000E+000	...........	1368.00
	17	4.65	3.37782E-001	3.36974E-001	0.00000E+000	...........	1368.00
	18	4.90833	3.37524E-001	3.36728E-001	0.00000E+000	...........	1367.95
	19	5.16667	3.37266E-001	3.36471E-001	0.00000E+000	...........	1367.83
	20	5.425	3.37007E-001	3.36235E-001	0.00000E+000	...........	1367.83
	21	5.68333	3.36750E-001	3.35976E-001	0.00000E+000	...........	1367.83
	22	5.94167	3.36497E-001	3.35703E-001	0.00000E+000	...........	1367.91
	23	6.2	3.36244E-001	3.35443E-001	0.00000E+000	...........	1367.91
	24	6.45833	3.35987E-001	3.35177E-001	0.00000E+000	...........	1367.91
	25	6.71667	3.35727E-001	3.34937E-001	0.00000E+000	...........	1367.91
	26	6.975	3.35466E-001	3.34688E-001	0.00000E+000	...........	1367.91
	27	7.23333	3.35208E-001	3.34426E-001	0.00000E+000	...........	1367.91
	28	7.49167	3.34954E-001	3.34164E-001	0.00000E+000	...........	1367.91
	29	7.75	3.34700E-001	3.33908E-001	0.00000E+000	...........	1367.91
	30	8.00833	3.34444E-001	3.33638E-001	0.00000E+000	...........	1368.00
	31	8.26667	3.34186E-001	3.33400E-001	0.00000E+000	...........	1368.00
	32	8.525	3.33926E-001	3.33131E-001	0.00000E+000	...........	1368.00
	33	8.78333	3.33668E-001	3.32856E-001	0.00000E+000	...........	1368.00
	34	9.04167	3.33409E-001	3.32601E-001	0.00000E+000	...........	1368.00
	35	9.3	3.33147E-001	3.32343E-001	0.00000E+000	...........	1368.00
	36	9.5583	3.32884E-001	3.32060E-001	0.00000E+000	...........	1368.00
	37	9.8167	3.32620E-001	3.31802E-001	0.00000E+000	...........	1368.00
	38	10.075	3.32355E-001	3.31533E-001	0.00000E+000	...........	1368.00
	39	10.3333	3.32088E-001	3.31273E-001	0.00000E+000	...........	1368.00
	40	10.5917	3.31822E-001	3.31037E-001	0.00000E+000	...........	1368.00
	41	10.85	3.31560E-001	3.30775E-001	0.00000E+000	...........	1368.00
	42	11.1083	3.31302E-001	3.30513E-001	0.00000E+000	...........	1368.00
	43	11.3667	3.31048E-001	3.30259E-001	0.00000E+000	...........	1368.00
	44	11.625	3.30792E-001	3.29980E-001	0.00000E+000	...........	1368.00
	45	11.8833	3.30533E-001	3.29740E-001	0.00000E+000	...........	1368.00
	46	12.1417	3.30273E-001	3.29481E-001	0.00000E+000	...........	1368.00
	47	12.4	3.30014E-001	3.29229E-001	0.00000E+000	...........	1368.00
	48	12.6583	3.29756E-001	3.28963E-001	0.00000E+000	...........	1368.00
	49	12.9167	3.29500E-001	3.28712E-001	0.00000E+000	...........	1367.80
	50	13.175	3.29244E-001	3.28464E-001	0.00000E+000	...........	1367.57
	51	13.4333	3.28988E-001	3.28193E-001	0.00000E+000	...........	1367.57
	52	13.6917	3.28732E-001	3.27941E-001	0.00000E+000	...........	1367.57
	53	13.95	3.28476E-001	3.27684E-001	0.00000E+000	...........	1367.83
	54	14.2083	3.28218E-001	3.27430E-001	0.00000E+000	...........	1367.83
	55	14.4667	3.27961E-001	3.27165E-001	0.00000E+000	...........	1367.83
	56	14.725	3.27704E-001	3.26913E-001	0.00000E+000	...........	1367.83
	57	14.9833	3.27446E-001	3.26654E-001	0.00000E+000	...........	1367.91
EOC	QUANT	0.3274464	Open Circuit (V)
PSTATMODEL	IQUANT	64	Pstat Model
PSTATSECTION	LABEL	IFC1010-32247	Pstat Section
PSTATSERIALNO	LABEL	32247	Pstat Serial Number
CTRLMODE	IQUANT	1	Control Mode
ELECTROMETER	IQUANT	0	RE=0 or CS=1
IESTAB	IQUANT	2	I/E Stability
CASPEED	IQUANT	4	Control Amp Speed
CONVENTION	IQUANT	1	Current Convention
ICHRANGE	IQUANT	2	Ich Range
ICHRANGEMODE	TOGGLE	F	Ich Auto Range
ICHOFFSETENABLE	TOGGLE	F	Ich Offset Enable
ICHOFFSET	QUANT	0	Ich Offset (V)
ICHFILTER	IQUANT	3	Ich Filter
VCHRANGE	IQUANT	2	Vch Range
VCHRANGEMODE	TOGGLE	F	Vch Auto Range
VCHOFFSETENABLE	TOGGLE	F	Vch Offset Enable
VCHOFFSET	QUANT	0	Vch Offset (V)
VCHFILTER	IQUANT	3	Vch Filter
IERANGELOWERLIMIT	IQUANT	4	I/E Range Lower Limit
IERANGEMODE	TOGGLE	F	I/E AutoRange
IERANGE	IQUANT	8	I/E Range
ACHSELECT	IQUANT	0	Ach Select
ACHRANGE	IQUANT	2	Ach Range
ACHOFFSETENABLE	TOGGLE	F	Ach Offset Enable
ACHOFFSET	QUANT	0	Ach Offset (V)
ACHFILTER	IQUANT	1	Ach Filter
SENSECABLEID	IQUANT	14	Sense Cable ID
PWRCABLEID	IQUANT	14	Power Cable ID
DCCALDATE	LABEL	11/18/2024	DC Calibration Date
ACCALDATE	LABEL	4/18/2022	AC Calibration Date
FRAMEWORKVERSION	LABEL	7.10.3	Framework Version
INSTRUMENTVERSION	LABEL	4.91	Instrument Version
COMMVERSION	LABEL	3.10	Communications Version
CPUPLDVERSION	LABEL	2.22	CPU PLD Version
CTRLPLDVERSION	LABEL	0.00	CTRL PLD Version
PSTATPLDVERSION	LABEL	0.00	PSTAT PLD Version
CURVE1	TABLE
	Pt	T	Vf	Im	Vu	Sig	Ach	IERange	Over	Temp
	#	s	V vs. Ref.	A	V	V	V	#	bits	deg C
	0	0.2	3.27498E-001	5.52008E-009	0.00000E+000	3.27465E-001	0.00000E+000	8	...........	1368.00
	3	0.8	2.97491E-001	-4.17445E-007	0.00000E+000	2.97423E-001	0.00000E+000	8	...........	1368.00
	6	1.4	2.67470E-001	-4.40019E-007	0.00000E+000	2.67431E-001	0.00000E+000	8	...........	1367.91
	9	2	2.37493E-001	-4.55104E-007	0.00000E+000	2.37438E-001	0.00000E+000	8	...........	1367.69
	12	2.6	2.07495E-001	-4.63410E-007	0.00000E+000	2.07446E-001	0.00000E+000	8	...........	1367.40
	15	3.2	1.77493E-001	-4.41453E-007	0.00000E+000	1.77454E-001	0.00000E+000	8	...........	1367.40
	18	3.8	1.47509E-001	-4.15419E-007	0.00000E+000	1.47461E-001	0.00000E+000	8	...........	1367.40
	21	4.4	1.17505E-001	-3.98713E-007	0.00000E+000	1.17469E-001	0.00000E+000	8	...........	1367.31
	24	5	8.74478E-002	-3.89334E-007	0.00000E+000	8.74266E-002	0.00000E+000	8	...........	1367.31
	27	5.6	5.74618E-002	-3.81886E-007	0.00000E+000	5.74343E-002	0.00000E+000	8	...........	1367.31
	30	6.2	2.74875E-002	-3.78257E-007	0.00000E+000	2.74419E-002	0.00000E+000	8	...........	1367.22
	33	6.8	-2.54685E-003	-3.80068E-007	0.00000E+000	-2.55038E-003	0.00000E+000	8	...........	1367.22
	36	7.4	-3.25371E-002	-3.90094E-007	0.00000E+000	-3.25427E-002	0.00000E+000	8	...........	1367.40
	39	8	-6.25240E-002	-4.03977E-007	0.00000E+000	-6.25350E-002	0.00000E+000	8	...........	1367.36
	42	8.6	-9.25877E-002	-4.35142E-007	0.00000E+000	-9.25773E-002	0.00000E+000	8	...........	1367.31
	45	9.2	-1.22564E-001	-4.82444E-007	0.00000E+000	-1.22570E-001	0.00000E+000	8	...........	1367.31
	48	9.8	-1.52551E-001	-5.33242E-007	0.00000E+000	-1.52562E-001	0.00000E+000	8	...........	1367.31
	51	10.4	-1.82564E-001	-5.69017E-007	0.00000E+000	-1.82554E-001	0.00000E+000	8	...........	1367.40
	54	11	-2.12549E-001	-5.90138E-007	0.00000E+000	-2.12547E-001	0.00000E+000	8	...........	1367.36
	57	11.6	-2.42531E-001	-6.09032E-007	0.00000E+000	-2.42539E-001	0.00000E+000	8	...........	1367.31
	60	12.2	-2.72520E-001	-6.31912E-007	0.00000E+000	-2.72531E-001	0.00000E+000	8	...........	1367.40
	63	12.8	-3.02573E-001	-6.60026E-007	0.00000E+000	-3.02574E-001	0.00000E+000	8	...........	1367.40
	66	13.4	-3.32548E-001	-6.90620E-007	0.00000E+000	-3.32566E-001	0.00000E+000	8	...........	1367.31
	69	14	-3.62567E-001	-7.18639E-007	0.00000E+000	-3.62558E-001	0.00000E+000	8	...........	1367.31
	72	14.6	-3.92543E-001	-7.39446E-007	0.00000E+000	-3.92551E-001	0.00000E+000	8	...........	1367.31
	75	15.2	-4.22547E-001	-7.51740E-007	0.00000E+000	-4.22543E-001	0.00000E+000	8	...........	1367.40
	78	15.8	-4.52539E-001	-7.53191E-007	0.00000E+000	-4.52535E-001	0.00000E+000	8	...........	1367.40
	81	16.4	-4.82531E-001	-7.46886E-007	0.00000E+000	-4.82527E-001	0.00000E+000	8	...........	1367.40
	84	17	-5.12603E-001	-7.39491E-007	0.00000E+000	-5.12570E-001	0.00000E+000	8	...........	1367.36
	87	17.6	-5.42565E-001	-7.32540E-007	0.00000E+000	-5.42562E-001	0.00000E+000	8	...........	1367.31
	90	18.2	-5.72553E-001	-7.28877E-007	0.00000E+000	-5.72554E-001	0.00000E+000	8	...........	1367.31
	93	18.8	-6.02565E-001	-7.32776E-007	0.00000E+000	-6.02547E-001	0.00000E+000	8	...........	1367.31
	96	19.4	-5.72572E-001	-3.76947E-007	0.00000E+000	-5.72554E-001	0.00000E+000	8	...........	1367.31
	99	20	-5.42585E-001	-2.97124E-007	0.00000E+000	-5.42562E-001	0.00000E+000	8	...........	1367.35
	102	20.6	-5.12617E-001	-2.34257E-007	0.00000E+000	-5.12570E-001	0.00000E+000	8	...........	1367.40
	105	21.2	-4.82559E-001	-1.73898E-007	0.00000E+000	-4.82527E-001	0.00000E+000	8	...........	1367.31
	108	21.8	-4.52572E-001	-1.16298E-007	0.00000E+000	-4.52535E-001	0.00000E+000	8	...........	1367.31
	111	22.4	-4.22552E-001	-5.79339E-008	0.00000E+000	-4.22543E-001	0.00000E+000	8	...........	1367.31
	114	23	-3.92558E-001	4.61762E-010	0.00000E+000	-3.92551E-001	0.00000E+000	8	...........	1367.31
	117	23.6	-3.62583E-001	5.82430E-008	0.00000E+000	-3.62558E-001	0.00000E+000	8	...........	1367.31
	120	24.2	-3.32578E-001	1.14160E-007	0.00000E+000	-3.32566E-001	0.00000E+000	8	...........	1367.31
	123	24.8	-3.02586E-001	1.65508E-007	0.00000E+000	-3.02574E-001	0.00000E+000	8	...........	1367.31
	126	25.4	-2.72546E-001	2.14695E-007	0.00000E+000	-2.72531E-001	0.00000E+000	8	...........	1367.31
	129	26	-2.42550E-001	2.58471E-007	0.00000E+000	-2.42539E-001	0.00000E+000	8	...........	1367.31
	132	26.6	-2.12561E-001	2.95406E-007	0.00000E+000	-2.12547E-001	0.00000E+000	8	...........	1367.31
	135	27.2	-1.82584E-001	3.26061E-007	0.00000E+000	-1.82554E-001	0.00000E+000	8	...........	1367.31
	138	27.8	-1.52570E-001	3.50982E-007	0.00000E+000	-1.52562E-001	0.00000E+000	8	...........	1367.31
	141	28.4	-1.22576E-001	3.66246E-007	0.00000E+000	-1.22570E-001	0.00000E+000	8	...........	1367.31
	144	29	-9.26141E-002	3.73648E-007	0.00000E+000	-9.25773E-002	0.00000E+000	8	...........	1367.31
	147	29.6	-6.25456E-002	3.77850E-007	0.00000E+000	-6.25350E-002	0.00000E+000	8	...........	1367.31
	150	30.2	-3.25629E-002	3.85529E-007	0.00000E+000	-3.25427E-002	0.00000E+000	8	...........	1367.31
	153	30.8	-2.56624E-003	3.94228E-007	0.00000E+000	-2.55038E-003	0.00000E+000	8	...........	1367.31
	156	31.4	2.74648E-002	3.94514E-007	0.00000E+000	2.74419E-002	0.00000E+000	8	...........	1367.31
	159	32	5.74361E-002	3.99554E-007	0.00000E+000	5.74343E-002	0.00000E+000	8	...........	1367.31
	162	32.6	8.74414E-002	4.05872E-007	0.00000E+000	8.74266E-002	0.00000E+000	8	...........	1367.31
	165	33.2	1.17496E-001	4.09908E-007	0.00000E+000	1.17469E-001	0.00000E+000	8	...........	1367.31
	168	33.8	1.47469E-001	4.22114E-007	0.00000E+000	1.47461E-001	0.00000E+000	8	...........	1367.31
	171	34.4	1.77462E-001	4.48427E-007	0.00000E+000	1.77454E-001	0.00000E+000	8	...........	1367.31
	174	35	2.07472E-001	4.98489E-007	0.00000E+000	2.07446E-001	0.00000E+000	8	...........	1367.31
	177	35.6	2.37467E-001	5.69439E-007	0.00000E+000	2.37438E-001	0.00000E+000	8	...........	1367.31
	180	36.2	2.67432E-001	6.01525E-007	0.00000E+000	2.67431E-001	0.00000E+000	8	...........	1367.31
	183	36.8	2.97454E-001	6.08053E-007	0.00000E+000	2.97423E-001	0.00000E+000	8	...........	1367.31
	186	37.4	3.27479E-001	6.10768E-007	0.00000E+000	3.27465E-001	0.00000E+000	8	...........	1367.31
	189	38	3.57469E-001	6.03806E-007	0.00000E+000	3.57457E-001	0.00000E+000	8	...........	1367.31
	192	38.6	3.87492E-001	5.98240E-007	0.00000E+000	3.87450E-001	0.00000E+000	8	...........	1367.31
	195	39.2	4.17505E-001	5.85171E-007	0.00000E+000	4.17442E-001	0.00000E+000	8	...........	1367.31
	198	39.8	4.47472E-001	5.63206E-007	0.00000E+000	4.47434E-001	0.00000E+000	8	...........	1367.31
	201	40.4	4.77474E-001	5.43596E-007	0.00000E+000	4.77427E-001	0.00000E+000	8	...........	1367.31
	204	41	5.07518E-001	5.28561E-007	0.00000E+000	5.07469E-001	0.00000E+000	8	...........	1367.31
	207	41.6	5.37519E-001	5.14575E-007	0.00000E+000	5.37461E-001	0.00000E+000	8	...........	1367.31
	210	42.2	5.67527E-001	5.06338E-007	0.00000E+000	5.67454E-001	0.00000E+000	8	...........	1367.31
	213	42.8	5.97505E-001	5.02473E-007	0.00000E+000	5.97446E-001	0.00000E+000	8	...........	1367.31
	216	43.4	6.27506E-001	5.03190E-007	0.00000E+000	6.27438E-001	0.00000E+000	8	...........	1367.31
	219	44	6.57499E-001	5.06960E-007	0.00000E+000	6.57431E-001	0.00000E+000	8	...........	1367.31
	222	44.6	6.87486E-001	5.13190E-007	0.00000E+000	6.87423E-001	0.00000E+000	8	...........	1367.31
	225	45.2	7.17523E-001	5.37626E-007	0.00000E+000	7.17465E-001	0.00000E+000	8	...........	1367.31
	228	45.8	7.47527E-001	6.20345E-007	0.00000E+000	7.47458E-001	0.00000E+000	8	...........	1367.31
	231	46.4	7.77527E-001	8.71406E-007	0.00000E+000	7.77450E-001	0.00000E+000	8	...........	1367.31
	233	46.8	7.97506E-001	1.26642E-006	0.00000E+000	7.97445E-001	0.00000E+000	8	...........	1367.31
CURVE2	TABLE
	Pt	T	Vf	Im	Vu	Sig	Ach	IERange	Over	Temp
	#	s	V vs. Ref.	A	V	V	V	#	bits	deg C
	234	47	7.90075E-001	4.22017E-007	0.00000E+000	7.89997E-001	0.00000E+000	8	...........	1367.31
	237	47.6	7.60097E-001	-1.54743E-007	0.00000E+000	7.60004E-001	0.00000E+000	8	...........	1367.31
	240	48.2	7.30123E-001	-2.60042E-007	0.00000E+000	7.30012E-001	0.00000E+000	8	...........	1367.31
	243	48.8	7.00098E-001	-3.09479E-007	0.00000E+000	7.00020E-001	0.00000E+000	8	...........	1367.31
	246	49.4	6.70065E-001	-3.45262E-007	0.00000E+000	6.69977E-001	0.00000E+000	8	...........	1367.31
	249	50	6.40068E-001	-3.74962E-007	0.00000E+000	6.39985E-001	0.00000E+000	8	...........	1367.31
	252	50.6	6.10088E-001	-3.92441E-007	0.00000E+000	6.09993E-001	0.00000E+000	8	...........	1367.31
	255	51.2	5.80091E-001	-4.07334E-007	0.00000E+000	5.80001E-001	0.00000E+000	8	...........	1367.31
	258	51.8	5.50101E-001	-4.23748E-007	0.00000E+000	5.50008E-001	0.00000E+000	8	...........	1367.31
	261	52.4	5.20092E-001	-4.41187E-007	0.00000E+000	5.20016E-001	0.00000E+000	8	...........	1367.31
	264	53	4.90110E-001	-4.61298E-007	0.00000E+000	4.90024E-001	0.00000E+000	8	...........	1367.31
	267	53.6	4.60051E-001	-4.85888E-007	0.00000E+000	4.59981E-001	0.00000E+000	8	...........	1367.31
	270	54.2	4.30058E-001	-5.09385E-007	0.00000E+000	4.29989E-001	0.00000E+000	8	...........	1367.31
	273	54.8	4.00053E-001	-5.28475E-007	0.00000E+000	3.99997E-001	0.00000E+000	8	...........	1367.31
	276	55.4	3.70056E-001	-5.39963E-007	0.00000E+000	3.70004E-001	0.00000E+000	8	...........	1367.31
	279	56	3.40056E-001	-5.34666E-007	0.00000E+000	3.40012E-001	0.00000E+000	8	...........	1367.31
	282	56.6	3.10083E-001	-5.33052E-007	0.00000E+000	3.10020E-001	0.00000E+000	8	...........	1367.31
	285	57.2	2.80021E-001	-5.28736E-007	0.00000E+000	2.79977E-001	0.00000E+000	8	...........	1367.31
	288	57.8	2.50034E-001	-5.14587E-007	0.00000E+000	2.49985E-001	0.00000E+000	8	...........	1367.31
	291	58.4	2.20020E-001	-5.06756E-007	0.00000E+000	2.19993E-001	0.00000E+000	8	...........	1367.31
	294	59	1.90046E-001	-4.62429E-007	0.00000E+000	1.90000E-001	0.00000E+000	8	...........	1367.31
	297	59.6	1.60050E-001	-4.18235E-007	0.00000E+000	1.60008E-001	0.00000E+000	8	...........	1367.31
	300	60.2	1.30072E-001	-3.89346E-007	0.00000E+000	1.30016E-001	0.00000E+000	8	...........	1367.31
	303	60.8	1.00039E-001	-3.72591E-007	0.00000E+000	1.00023E-001	0.00000E+000	8	...........	1367.31
	306	61.4	7.00226E-002	-3.63723E-007	0.00000E+000	6.99811E-002	0.00000E+000	8	...........	1367.31
	309	62	4.00325E-002	-3.59777E-007	0.00000E+000	3.99887E-002	0.00000E+000	8	...........	1367.31
	312	62.6	1.00197E-002	-3.60256E-007	0.00000E+000	9.99641E-003	0.00000E+000	8	...........	1367.31
	315	63.2	-1.99994E-002	-3.67593E-007	0.00000E+000	-1.99959E-002	0.00000E+000	8	...........	1367.31
	318	63.8	-4.99660E-002	-3.75215E-007	0.00000E+000	-4.99882E-002	0.00000E+000	8	...........	1367.31
	321	64.4	-7.99829E-002	-3.91693E-007	0.00000E+000	-7.99806E-002	0.00000E+000	8	...........	1367.31
[...]
	676	135.4	-3.70016E-001	9.22530E-008	0.00000E+000	-3.70006E-001	0.00000E+000	8	...........	1367.31
	679	136	-3.40039E-001	1.39156E-007	0.00000E+000	-3.40014E-001	0.00000E+000	8	...........	1367.31
	682	136.6	-3.10059E-001	1.82004E-007	0.00000E+000	-3.10022E-001	0.00000E+000	8	...........	1367.31
	685	137.2	-2.79990E-001	2.22855E-007	0.00000E+000	-2.79979E-001	0.00000E+000	8	...........	1367.31
	688	137.8	-2.50001E-001	2.57709E-007	0.00000E+000	-2.49987E-001	0.00000E+000	8	...........	1367.31
	691	138.4	-2.20019E-001	2.88062E-007	0.00000E+000	-2.19995E-001	0.00000E+000	8	...........	1367.31
	694	139	-1.90018E-001	3.13668E-007	0.00000E+000	-1.90002E-001	0.00000E+000	8	...........	1367.27
	697	139.6	-1.60023E-001	3.34682E-007	0.00000E+000	-1.60010E-001	0.00000E+000	8	...........	1367.22
	700	140.2	-1.30039E-001	3.47631E-007	0.00000E+000	-1.30018E-001	0.00000E+000	8	...........	1367.22
	703	140.8	-9.99946E-002	3.54160E-007	0.00000E+000	-9.99754E-002	0.00000E+000	8	...........	1367.22
	706	141.4	-6.99938E-002	3.54796E-007	0.00000E+000	-6.99831E-002	0.00000E+000	8	...........	1367.31
	709	142	-4.00212E-002	3.59623E-007	0.00000E+000	-3.99908E-002	0.00000E+000	8	...........	1367.27
	712	142.6	-1.00160E-002	3.69208E-007	0.00000E+000	-9.99847E-003	0.00000E+000	8	...........	1367.22
	715	143.2	1.99937E-002	3.72060E-007	0.00000E+000	1.99939E-002	0.00000E+000	8	...........	1367.31
	718	143.8	4.99924E-002	3.73462E-007	0.00000E+000	4.99862E-002	0.00000E+000	8	...........	1367.31
	721	144.4	7.99978E-002	3.79417E-007	0.00000E+000	7.99785E-002	0.00000E+000	8	...........	1367.22
	724	145	1.10036E-001	3.83977E-007	0.00000E+000	1.10021E-001	0.00000E+000	8	...........	1367.22
	727	145.6	1.40027E-001	3.92379E-007	0.00000E+000	1.40013E-001	0.00000E+000	8	...........	1367.22
	730	146.2	1.70010E-001	4.14281E-007	0.00000E+000	1.70005E-001	0.00000E+000	8	...........	1367.22
	733	146.8	2.00019E-001	4.56637E-007	0.00000E+000	1.99998E-001	0.00000E+000	8	...........	1367.22
	736	147.4	2.30022E-001	5.28928E-007	0.00000E+000	2.29990E-001	0.00000E+000	8	...........	1367.22
	739	148	2.60018E-001	5.83611E-007	0.00000E+000	2.59982E-001	0.00000E+000	8	...........	1367.27
	742	148.6	2.90049E-001	5.93259E-007	0.00000E+000	2.90025E-001	0.00000E+000	8	...........	1367.31
	745	149.2	3.20059E-001	5.93786E-007	0.00000E+000	3.20017E-001	0.00000E+000	8	...........	1367.31
	748	149.8	3.50048E-001	5.89836E-007	0.00000E+000	3.50009E-001	0.00000E+000	8	...........	1367.31
	751	150.4	3.80025E-001	5.84505E-007	0.00000E+000	3.80002E-001	0.00000E+000	8	...........	1367.22
	754	151	4.10037E-001	5.79140E-007	0.00000E+000	4.09994E-001	0.00000E+000	8	...........	1367.22
	757	151.6	4.40022E-001	5.55915E-007	0.00000E+000	4.39986E-001	0.00000E+000	8	...........	1367.22
	760	152.2	4.70024E-001	5.34179E-007	0.00000E+000	4.69979E-001	0.00000E+000	8	...........	1367.31
	763	152.8	5.00084E-001	5.14030E-007	0.00000E+000	5.00021E-001	0.00000E+000	8	...........	1367.31
	766	153.4	5.30069E-001	4.96247E-007	0.00000E+000	5.30013E-001	0.00000E+000	8	...........	1367.31
	769	154	5.60062E-001	4.83712E-007	0.00000E+000	5.60006E-001	0.00000E+000	8	...........	1367.31
	772	154.6	5.90062E-001	4.75087E-007	0.00000E+000	5.89998E-001	0.00000E+000	8	...........	1367.31
	775	155.2	6.20044E-001	4.69824E-007	0.00000E+000	6.19990E-001	0.00000E+000	8	...........	1367.31
	778	155.8	6.50048E-001	4.67038E-007	0.00000E+000	6.49983E-001	0.00000E+000	8	...........	1367.31
	781	156.4	6.80096E-001	4.63717E-007	0.00000E+000	6.80025E-001	0.00000E+000	8	...........	1367.31
	784	157	7.10108E-001	4.70530E-007	0.00000E+000	7.10017E-001	0.00000E+000	8	...........	1367.31
	787	157.6	7.40072E-001	5.19515E-007	0.00000E+000	7.40010E-001	0.00000E+000	8	...........	1367.31
	790	158.2	7.70083E-001	6.94706E-007	0.00000E+000	7.70002E-001	0.00000E+000	8	...........	1367.22
	793	158.8	8.00072E-001	1.23291E-006	0.00000E+000	7.99994E-001	0.00000E+000	8	...........	1367.22
CURVE4	TABLE
	Pt	T	Vf	Im	Vu	Sig	Ach	IERange	Over	Temp
	#	s	V vs. Ref.	A	V	V	V	#	bits	deg C
	794	159	7.90087E-001	2.49811E-007	0.00000E+000	7.89997E-001	0.00000E+000	8	...........	1367.27
	795	159.2	7.80082E-001	-5.00419E-009	0.00000E+000	7.79999E-001	0.00000E+000	8	...........	1367.31
	796	159.4	7.70106E-001	-1.29695E-007	0.00000E+000	7.70002E-001	0.00000E+000	8	...........	1367.31
	797	159.6	7.60107E-001	-1.97334E-007	0.00000E+000	7.60004E-001	0.00000E+000	8	...........	1367.31
	798	159.8	7.50107E-001	-2.38237E-007	0.00000E+000	7.50007E-001	0.00000E+000	8	...........	1367.31
	799	160	7.40097E-001	-2.65315E-007	0.00000E+000	7.40010E-001	0.00000E+000	8	...........	1367.31
	800	160.2	7.30129E-001	-2.83857E-007	0.00000E+000	7.30012E-001	0.00000E+000	8	...........	1367.31
	801	160.4	7.20111E-001	-2.98018E-007	0.00000E+000	7.20015E-001	0.00000E+000	8	...........	1367.31
	802	160.6	7.10130E-001	-3.10075E-007	0.00000E+000	7.10017E-001	0.00000E+000	8	...........	1367.31
	803	160.8	7.00106E-001	-3.21635E-007	0.00000E+000	7.00020E-001	0.00000E+000	8	...........	1367.31
	804	161	6.90100E-001	-3.32255E-007	0.00000E+000	6.90022E-001	0.00000E+000	8	...........	1367.31
	805	161.2	6.80120E-001	-3.41492E-007	0.00000E+000	6.80025E-001	0.00000E+000	8	...........	1367.31
	806	161.4	6.70076E-001	-3.52268E-007	0.00000E+000	6.69977E-001	0.00000E+000	8	...........	1367.31
	807	161.6	6.60072E-001	-3.60866E-007	0.00000E+000	6.59980E-001	0.00000E+000	8	...........	1367.31
	808	161.8	6.50069E-001	-3.69859E-007	0.00000E+000	6.49983E-001	0.00000E+000	8	...........	1367.31
	809	162	6.40060E-001	-3.77966E-007	0.00000E+000	6.39985E-001	0.00000E+000	8	...........	1367.27
	810	162.2	6.30079E-001	-3.84843E-007	0.00000E+000	6.29988E-001	0.00000E+000	8	...........	1367.22
	811	162.4	6.20077E-001	-3.89745E-007	0.00000E+000	6.19990E-001	0.00000E+000	8	...........	1367.22
	812	162.6	6.10076E-001	-3.94220E-007	0.00000E+000	6.09993E-001	0.00000E+000	8	...........	1367.22
	813	162.8	6.00070E-001	-3.98627E-007	0.00000E+000	5.99995E-001	0.00000E+000	8	...........	1367.22
	814	163	5.90091E-001	-4.03377E-007	0.00000E+000	5.89998E-001	0.00000E+000	8	...........	1367.27
	815	163.2	5.80090E-001	-4.08686E-007	0.00000E+000	5.80001E-001	0.00000E+000	8	...........	1367.31
	816	163.4	5.70089E-001	-4.15010E-007	0.00000E+000	5.70003E-001	0.00000E+000	8	...........	1367.31
	817	163.6	5.60089E-001	-4.21038E-007	0.00000E+000	5.60006E-001	0.00000E+000	8	...........	1367.31
	818	163.8	5.50091E-001	-4.27335E-007	0.00000E+000	5.50008E-001	0.00000E+000	8	...........	1367.31
	819	164	5.40087E-001	-4.32808E-007	0.00000E+000	5.40011E-001	0.00000E+000	8	...........	1367.31
	820	164.2	5.30089E-001	-4.38649E-007	0.00000E+000	5.30013E-001	0.00000E+000	8	...........	1367.31
	821	164.4	5.20091E-001	-4.45657E-007	0.00000E+000	5.20016E-001	0.00000E+000	8	...........	1367.31
	822	164.6	5.10080E-001	-4.50992E-007	0.00000E+000	5.10018E-001	0.00000E+000	8	...........	1367.31
	823	164.8	5.00112E-001	-4.57432E-007	0.00000E+000	5.00021E-001	0.00000E+000	8	...........	1367.31
	824	165	4.90112E-001	-4.65447E-007	0.00000E+000	4.90024E-001	0.00000E+000	8	...........	1367.27
	825	165.2	4.80053E-001	-4.75401E-007	0.00000E+000	4.79976E-001	0.00000E+000	8	...........	1367.22
	826	165.4	4.70044E-001	-4.80865E-007	0.00000E+000	4.69979E-001	0.00000E+000	8	...........	1367.22
	827	165.6	4.60055E-001	-4.89375E-007	0.00000E+000	4.59981E-001	0.00000E+000	8	...........	1367.22
	828	165.8	4.50057E-001	-4.97149E-007	0.00000E+000	4.49984E-001	0.00000E+000	8	...........	1367.22
	829	166	4.40043E-001	-5.04979E-007	0.00000E+000	4.39986E-001	0.00000E+000	8	...........	1367.27
	830	166.2	4.30052E-001	-5.12783E-007	0.00000E+000	4.29989E-001	0.00000E+000	8	...........	1367.31
	831	166.4	4.20058E-001	-5.19692E-007	0.00000E+000	4.19991E-001	0.00000E+000	8	...........	1367.31
	832	166.6	4.10065E-001	-5.25986E-007	0.00000E+000	4.09994E-001	0.00000E+000	8	...........	1367.31
	833	166.8	4.00063E-001	-5.31417E-007	0.00000E+000	3.99997E-001	0.00000E+000	8	...........	1367.31
	834	167	3.90051E-001	-5.36751E-007	0.00000E+000	3.89999E-001	0.00000E+000	8	...........	1367.31
	835	167.2	3.80048E-001	-5.40673E-007	0.00000E+000	3.80002E-001	0.00000E+000	8	...........	1367.31
	836	167.4	3.70050E-001	-5.41485E-007	0.00000E+000	3.70004E-001	0.00000E+000	8	...........	1367.31
	837	167.6	3.60063E-001	-5.38445E-007	0.00000E+000	3.60007E-001	0.00000E+000	8	...........	1367.31
	838	167.8	3.50072E-001	-5.35885E-007	0.00000E+000	3.50009E-001	0.00000E+000	8	...........	1367.31
	839	168	3.40051E-001	-5.34141E-007	0.00000E+000	3.40012E-001	0.00000E+000	8	...........	1367.31
	840	168.2	3.30056E-001	-5.32306E-007	0.00000E+000	3.30014E-001	0.00000E+000	8	...........	1367.31