File: Test_Data_Files/20250509_ZN_IF0011_IIA42_E09_PBSair_PEDOT_CV50000.DTA
EXPLAIN
TAG	CV
TITLE	LABEL	CV50000	Test Identifier
DATE	LABEL	5/9/2025	Date
TIME	LABEL	15:48:40	Time
NOTES	NOTES	1	Notes...

PSTAT	PSTAT	REF600P-43058	Potentiostat
VINIT	POTEN	0.00000E+000	T	Initial E (V)
VLIMIT1	POTEN	-9.00000E-001	F	Scan Limit 1 (V)
VLIMIT2	POTEN	6.00000E-001	F	Scan Limit 2 (V)
VFINAL	POTEN	0.00000E+000	T	Final E (V)
SCANRATE	QUANT	4.99999E+004	Scan Rate (mV/s)
STEPSIZE	QUANT	1.00000E+001	Step Size (mV)
CYCLES	IQUANT	3	Cycles (#)
IMODE	SELECTOR	1	I/E Range Mode
IRANGE	QUANT	1.00000E-002	Max Current (mA)
AREA	QUANT	1.00000E+000	Sample Area (cm^2)
EQDELAY	QUANT	5.00000E+000	Equil. Time (s)
IRCOMP	SELECTOR	0	IRComp
PFCOR	QUANT	5.00000E+001	PF Corr. (ohm)
SAMPLINGMODE	SELECTOR	2	Sampling Mode
EOC	QUANT	0.1477523	Open Circuit (V)
ELECTRODETYPE	SELECTOR	0	Electrode Type
STRIPPING	TOGGLE	F	Used for Stripping
SEQUENCER	TOGGLE	TRUE	Run as Sequence
PSTATMODEL	IQUANT	7	Pstat Model
PSTATSECTION	LABEL	REF600P-43058	Pstat Section
PSTATSERIALNO	LABEL	43058	Pstat Serial Number
CTRLMODE	IQUANT	1	Control Mode
ELECTROMETER	IQUANT	0	RE=0 or CS=1
IESTAB	IQUANT	2	I/E Stability
CASPEED	IQUANT	4	Control Amp Speed
CONVENTION	IQUANT	1	Current Convention
ICHRANGE	IQUANT	2	Ich Range
ICHRANGEMODE	TOGGLE	F	Ich Auto Range
ICHOFFSETENABLE	TOGGLE	F	Ich Offset Enable
ICHOFFSET	QUANT	0	Ich Offset (V)
ICHFILTER	IQUANT	1	Ich Filter
VCHRANGE	IQUANT	2	Vch Range
VCHRANGEMODE	TOGGLE	F	Vch Auto Range
VCHOFFSETENABLE	TOGGLE	F	Vch Offset Enable
VCHOFFSET	QUANT	0	Vch Offset (V)
VCHFILTER	IQUANT	1	Vch Filter
ACHRANGE	IQUANT	2	Ach Range
ACHOFFSETENABLE	TOGGLE	F	Ach Offset Enable
ACHOFFSET	QUANT	0	Ach Offset (V)
ACHFILTER	IQUANT	1	Ach Filter
IERANGELOWERLIMIT	IQUANT	1	I/E Range Lower Limit
IERANGEMODE	TOGGLE	F	I/E AutoRange
IERANGE	IQUANT	7	I/E Range
POSFEEDENABLE	TOGGLE	F	Positive Feedback IR Comp
POSFEEDRESISTANCE	QUANT	0	Positive Feedback Resistance (ohm)
ACHSELECT	IQUANT	4	Ach Select
SENSECABLEID	IQUANT	7	Sense Cable ID
PWRCABLEID	IQUANT	7	Power Cable ID
DCCALDATE	LABEL	5/8/2025	DC Calibration Date
ACCALDATE	LABEL	5/8/2025	AC Calibration Date
THERMOSELECT	IQUANT	1	Thermo Select
FRAMEWORKVERSION	LABEL	7.10.4	Framework Version
INSTRUMENTVERSION	LABEL	5.01	Instrument Version
COMMVERSION	LABEL	5.10	Communications Version
CPUPLDVERSION	LABEL	6.00	CPU PLD Version
CTRLPLDVERSION	LABEL	3.21	CTRL PLD Version
PSTATPLDVERSION	LABEL	0.00	PSTAT PLD Version
CURVE1	TABLE
	Pt	T	Vf	Im	Vu	Sig	Ach	IERange	Over	Temp
	#	s	V vs. Ref.	A	V	V	V	#	bits	deg C
	0	0.0002	1.47887E-001	1.14055E-008	0.00000E+000	1.47750E-001	1.21522E-003	7	...........	-327.66
	3	0.0008	1.17887E-001	-3.39056E-006	0.00000E+000	1.17750E-001	1.09022E-003	7	...........	-327.66
	6	0.0014	8.79748E-002	-5.65562E-006	0.00000E+000	8.77500E-002	1.09022E-003	7	...........	-327.66
	9	0.002	5.79248E-002	-7.41761E-006	0.00000E+000	5.77500E-002	9.90224E-004	7	...........	-327.66
	12	0.0026	2.79498E-002	-8.92281E-006	0.00000E+000	2.77500E-002	1.06522E-003	7	...........	-327.66
	15	0.0032	-2.07519E-003	-1.02675E-005	0.00000E+000	-2.25002E-003	1.06522E-003	7	...........	-327.66
	18	0.0038	-3.21877E-002	-1.15189E-005	0.00000E+000	-3.22500E-002	1.01522E-003	7	...........	-327.66
	21	0.0044	-6.20627E-002	-1.26916E-005	0.00000E+000	-6.22500E-002	1.16522E-003	7	...........	-327.66
	24	0.005	-9.21002E-002	-1.38142E-005	0.00000E+000	-9.22500E-002	1.04022E-003	7	...........	-327.66
	27	0.0056	-1.22100E-001	-1.49036E-005	0.00000E+000	-1.22250E-001	1.06522E-003	7	...........	-327.66
	30	0.0062	-1.52113E-001	-1.59693E-005	0.00000E+000	-1.52250E-001	9.40224E-004	7	...........	-327.66
	33	0.0068	-1.82125E-001	-1.70174E-005	0.00000E+000	-1.82250E-001	1.14022E-003	7	...........	-327.66
	36	0.0074	-2.12063E-001	-1.80491E-005	0.00000E+000	-2.12250E-001	1.16522E-003	7	...........	-327.66
	39	0.008	-2.41963E-001	-1.90742E-005	0.00000E+000	-2.42250E-001	1.29022E-003	7	...........	-327.66
	42	0.0086	-2.72075E-001	-2.00911E-005	0.00000E+000	-2.72250E-001	9.90224E-004	7	...........	-327.66
	45	0.0092	-3.02025E-001	-2.11050E-005	0.00000E+000	-3.02250E-001	9.65224E-004	7	...........	-327.66
	48	0.0098	-3.32063E-001	-2.21096E-005	0.00000E+000	-3.32250E-001	1.14022E-003	7	...........	-327.66
	51	0.0104	-3.62088E-001	-2.31072E-005	0.00000E+000	-3.62250E-001	1.06522E-003	7	...........	-327.66
	54	0.011	-3.92063E-001	-2.40974E-005	0.00000E+000	-3.92250E-001	9.65224E-004	7	...........	-327.66
	57	0.0116	-4.21888E-001	-2.50853E-005	0.00000E+000	-4.22250E-001	1.06522E-003	7	...........	-327.66
	60	0.0122	-4.51975E-001	-2.60556E-005	0.00000E+000	-4.52250E-001	8.90224E-004	7	...........	-327.66
	63	0.0128	-4.82050E-001	-2.70130E-005	0.00000E+000	-4.82250E-001	1.11522E-003	7	...........	-327.66
	66	0.0134	-5.12063E-001	-2.79574E-005	0.00000E+000	-5.12250E-001	9.90224E-004	7	...........	-327.66
	69	0.014	-5.41988E-001	-2.88833E-005	0.00000E+000	-5.42250E-001	1.04022E-003	7	...........	-327.66
	72	0.0146	-5.72038E-001	-2.97817E-005	0.00000E+000	-5.72250E-001	9.90224E-004	7	...........	-327.66
	75	0.0152	-6.01938E-001	-3.06565E-005	0.00000E+000	-6.02250E-001	1.16522E-003	7	...........	-327.66
	78	0.0158	-6.31988E-001	-3.14894E-005	0.00000E+000	-6.32250E-001	1.11522E-003	7	...........	-327.66
	81	0.0164	-6.62038E-001	-3.22852E-005	0.00000E+000	-6.62250E-001	1.09022E-003	7	...........	-327.66
	84	0.017	-6.91975E-001	-3.30263E-005	0.00000E+000	-6.92250E-001	1.24022E-003	7	...........	-327.66
	87	0.0176	-7.21900E-001	-3.36987E-005	0.00000E+000	-7.22250E-001	1.14022E-003	7	...........	-327.66
	90	0.0182	-7.52013E-001	-3.42923E-005	0.00000E+000	-7.52250E-001	1.14022E-003	7	...........	-327.66
	93	0.0188	-7.81913E-001	-3.47811E-005	0.00000E+000	-7.82250E-001	9.65224E-004	7	...........	-327.66
	96	0.0194	-8.11963E-001	-3.51424E-005	0.00000E+000	-8.12250E-001	1.04022E-003	7	...........	-327.66
	99	0.02	-8.41963E-001	-3.53507E-005	0.00000E+000	-8.42250E-001	1.19022E-003	7	...........	-327.66
	102	0.0206	-8.71988E-001	-3.53754E-005	0.00000E+000	-8.72250E-001	1.11522E-003	7	...........	-327.66
	105	0.0212	-9.01888E-001	-3.51941E-005	0.00000E+000	-9.02250E-001	1.01522E-003	7	...........	-327.66
	108	0.0218	-8.72000E-001	-2.92531E-005	0.00000E+000	-8.72250E-001	1.19022E-003	7	...........	-327.66
	111	0.0224	-8.41963E-001	-2.49800E-005	0.00000E+000	-8.42250E-001	1.11522E-003	7	...........	-327.66
	114	0.023	-8.11925E-001	-2.13955E-005	0.00000E+000	-8.12250E-001	1.11522E-003	7	...........	-327.66
	117	0.0236	-7.82013E-001	-1.81501E-005	0.00000E+000	-7.82250E-001	1.11522E-003	7	...........	-327.66
	120	0.0242	-7.52038E-001	-1.51142E-005	0.00000E+000	-7.52250E-001	1.04022E-003	7	...........	-327.66
	123	0.0248	-7.22113E-001	-1.22303E-005	0.00000E+000	-7.22250E-001	1.04022E-003	7	...........	-327.66
	126	0.0254	-6.92050E-001	-9.47464E-006	0.00000E+000	-6.92250E-001	1.11522E-003	7	...........	-327.66
	129	0.026	-6.62063E-001	-6.84278E-006	0.00000E+000	-6.62250E-001	1.11522E-003	7	...........	-327.66
	132	0.0266	-6.32050E-001	-4.32519E-006	0.00000E+000	-6.32250E-001	1.21522E-003	7	...........	-327.66
	135	0.0272	-6.02063E-001	-1.91561E-006	0.00000E+000	-6.02250E-001	1.09022E-003	7	...........	-327.66
	138	0.0278	-5.72113E-001	3.80206E-007	0.00000E+000	-5.72250E-001	1.01522E-003	7	...........	-327.66
	141	0.0284	-5.42150E-001	2.57601E-006	0.00000E+000	-5.42250E-001	1.14022E-003	7	...........	-327.66
	144	0.029	-5.12113E-001	4.68529E-006	0.00000E+000	-5.12250E-001	1.21522E-003	7	...........	-327.66
	147	0.0296	-4.82200E-001	6.69782E-006	0.00000E+000	-4.82250E-001	1.06522E-003	7	...........	-327.66
	150	0.0302	-4.52050E-001	8.64258E-006	0.00000E+000	-4.52250E-001	1.01522E-003	7	...........	-327.66
	153	0.0308	-4.22163E-001	1.05018E-005	0.00000E+000	-4.22250E-001	1.16522E-003	7	...........	-327.66
	156	0.0314	-3.92138E-001	1.22903E-005	0.00000E+000	-3.92250E-001	1.21522E-003	7	...........	-327.66
	159	0.032	-3.62288E-001	1.39936E-005	0.00000E+000	-3.62250E-001	1.09022E-003	7	...........	-327.66
	162	0.0326	-3.32100E-001	1.56118E-005	0.00000E+000	-3.32250E-001	1.14022E-003	7	...........	-327.66
	165	0.0332	-3.02338E-001	1.71337E-005	0.00000E+000	-3.02250E-001	1.16522E-003	7	...........	-327.66
	168	0.0338	-2.72163E-001	1.85742E-005	0.00000E+000	-2.72250E-001	1.19022E-003	7	...........	-327.66
	171	0.0344	-2.42138E-001	1.99124E-005	0.00000E+000	-2.42250E-001	1.06522E-003	7	...........	-327.66
	174	0.035	-2.12113E-001	2.11565E-005	0.00000E+000	-2.12250E-001	1.14022E-003	7	...........	-327.66
	177	0.0356	-1.82250E-001	2.22989E-005	0.00000E+000	-1.82250E-001	1.19022E-003	7	...........	-327.66
	180	0.0362	-1.52313E-001	2.33411E-005	0.00000E+000	-1.52250E-001	1.06522E-003	7	...........	-327.66
	183	0.0368	-1.22263E-001	2.42955E-005	0.00000E+000	-1.22250E-001	1.09022E-003	7	...........	-327.66
	186	0.0374	-9.21627E-002	2.51536E-005	0.00000E+000	-9.22500E-002	9.90224E-004	7	...........	-327.66
	189	0.038	-6.22502E-002	2.59279E-005	0.00000E+000	-6.22500E-002	1.16522E-003	7	...........	-327.66
	192	0.0386	-3.21377E-002	2.66265E-005	0.00000E+000	-3.22500E-002	1.11522E-003	7	...........	-327.66
	195	0.0392	-2.28769E-003	2.72571E-005	0.00000E+000	-2.25002E-003	1.09022E-003	7	...........	-327.66
	198	0.0398	2.78123E-002	2.78237E-005	0.00000E+000	2.77500E-002	1.16522E-003	7	...........	-327.66
	201	0.0404	5.76498E-002	2.83193E-005	0.00000E+000	5.77500E-002	1.21522E-003	7	...........	-327.66
	204	0.041	8.77623E-002	2.87556E-005	0.00000E+000	8.77500E-002	1.14022E-003	7	...........	-327.66
	207	0.0416	1.17637E-001	2.91099E-005	0.00000E+000	1.17750E-001	1.14022E-003	7	...........	-327.66
	210	0.0422	1.47775E-001	2.93849E-005	0.00000E+000	1.47750E-001	1.19022E-003	7	...........	-327.66
	213	0.0428	1.77737E-001	2.95809E-005	0.00000E+000	1.77750E-001	9.90224E-004	7	...........	-327.66
	216	0.0434	2.07712E-001	2.96927E-005	0.00000E+000	2.07750E-001	1.04022E-003	7	...........	-327.66
	219	0.044	2.37662E-001	2.97385E-005	0.00000E+000	2.37750E-001	1.14022E-003	7	...........	-327.66
	222	0.0446	2.67737E-001	2.97335E-005	0.00000E+000	2.67750E-001	1.14022E-003	7	...........	-327.66
	225	0.0452	2.97637E-001	2.96907E-005	0.00000E+000	2.97750E-001	1.06522E-003	7	...........	-327.66
	228	0.0458	3.27787E-001	2.96094E-005	0.00000E+000	3.27750E-001	1.24022E-003	7	...........	-327.66
	231	0.0464	3.57687E-001	2.95122E-005	0.00000E+000	3.57750E-001	1.14022E-003	7	...........	-327.66
	234	0.047	3.87862E-001	2.93979E-005	0.00000E+000	3.87750E-001	9.90224E-004	7	...........	-327.66
	237	0.0476	4.17612E-001	2.92721E-005	0.00000E+000	4.17750E-001	1.04022E-003	7	...........	-327.66
	240	0.0482	4.47750E-001	2.91414E-005	0.00000E+000	4.47750E-001	1.01522E-003	7	...........	-327.66
	243	0.0488	4.77712E-001	2.90154E-005	0.00000E+000	4.77750E-001	1.19022E-003	7	...........	-327.66
	246	0.0494	5.07750E-001	2.88988E-005	0.00000E+000	5.07750E-001	1.06522E-003	7	...........	-327.66
	249	0.05	5.37587E-001	2.87988E-005	0.00000E+000	5.37750E-001	1.09022E-003	7	...........	-327.66
	252	0.0506	5.67712E-001	2.87223E-005	0.00000E+000	5.67750E-001	1.16522E-003	7	...........	-327.66
	255	0.0512	5.97650E-001	2.86716E-005	0.00000E+000	5.97750E-001	1.19022E-003	7	...........	-327.66
CURVE2	TABLE
	Pt	T	Vf	Im	Vu	Sig	Ach	IERange	Over	Temp
	#	s	V vs. Ref.	A	V	V	V	#	bits	deg C
	256	0.0514	5.90012E-001	2.63973E-005	0.00000E+000	5.90000E-001	1.11522E-003	7	...........	-327.66
	260	0.0522	5.49937E-001	1.88120E-005	0.00000E+000	5.50000E-001	1.09022E-003	7	...........	-327.66
	264	0.053	5.09887E-001	1.39551E-005	0.00000E+000	5.10000E-001	1.04022E-003	7	...........	-327.66
	268	0.0538	4.69925E-001	1.01695E-005	0.00000E+000	4.70000E-001	9.40224E-004	7	...........	-327.66
	272	0.0546	4.30062E-001	7.00011E-006	0.00000E+000	4.30000E-001	9.65224E-004	7	...........	-327.66
	276	0.0554	3.89987E-001	4.22748E-006	0.00000E+000	3.90000E-001	9.40224E-004	7	...........	-327.66
	280	0.0562	3.50062E-001	1.75339E-006	0.00000E+000	3.50000E-001	9.40224E-004	7	...........	-327.66
	284	0.057	3.10125E-001	-5.02165E-007	0.00000E+000	3.10000E-001	1.16522E-003	7	...........	-327.66
	288	0.0578	2.70187E-001	-2.56895E-006	0.00000E+000	2.70000E-001	1.04022E-003	7	...........	-327.66
	292	0.0586	2.30212E-001	-4.49796E-006	0.00000E+000	2.30000E-001	1.14022E-003	7	...........	-327.66
	296	0.0594	1.90100E-001	-6.31396E-006	0.00000E+000	1.90000E-001	1.16522E-003	7	...........	-327.66
	300	0.0602	1.50087E-001	-8.02269E-006	0.00000E+000	1.50000E-001	9.90224E-004	7	...........	-327.66
	304	0.061	1.10187E-001	-9.65316E-006	0.00000E+000	1.10000E-001	9.90224E-004	7	...........	-327.66
	308	0.0618	7.01123E-002	-1.12149E-005	0.00000E+000	7.00000E-002	1.16522E-003	7	...........	-327.66
	312	0.0626	3.01248E-002	-1.27218E-005	0.00000E+000	3.00000E-002	1.21522E-003	7	...........	-327.66
	316	0.0634	-9.77519E-003	-1.41700E-005	0.00000E+000	-1.00000E-002	1.11522E-003	7	...........	-327.66
	320	0.0642	-4.98377E-002	-1.55780E-005	0.00000E+000	-5.00000E-002	1.21522E-003	7	...........	-327.66
	324	0.065	-8.98127E-002	-1.69382E-005	0.00000E+000	-9.00000E-002	1.16522E-003	7	...........	-327.66
	328	0.0658	-1.29788E-001	-1.82661E-005	0.00000E+000	-1.30000E-001	1.01522E-003	7	...........	-327.66
	332	0.0666	-1.69813E-001	-1.95543E-005	0.00000E+000	-1.70000E-001	1.16522E-003	7	...........	-327.66
	336	0.0674	-2.09700E-001	-2.08309E-005	0.00000E+000	-2.10000E-001	1.21522E-003	7	...........	-327.66
	340	0.0682	-2.49775E-001	-2.20899E-005	0.00000E+000	-2.50000E-001	1.21522E-003	7	...........	-327.66
	344	0.069	-2.89688E-001	-2.33278E-005	0.00000E+000	-2.90000E-001	1.26522E-003	7	...........	-327.66
	348	0.0698	-3.29800E-001	-2.45599E-005	0.00000E+000	-3.30000E-001	1.19022E-003	7	...........	-327.66
	352	0.0706	-3.69738E-001	-2.57746E-005	0.00000E+000	-3.70000E-001	1.11522E-003	7	...........	-327.66
	356	0.0714	-4.09713E-001	-2.69598E-005	0.00000E+000	-4.10000E-001	1.16522E-003	7	...........	-327.66
	360	0.0722	-4.49650E-001	-2.81229E-005	0.00000E+000	-4.50000E-001	1.14022E-003	7	...........	-327.66
	364	0.073	-4.89663E-001	-2.92468E-005	0.00000E+000	-4.90000E-001	1.16522E-003	7	...........	-327.66
	368	0.0738	-5.29738E-001	-3.03292E-005	0.00000E+000	-5.30000E-001	1.04022E-003	7	...........	-327.66
	372	0.0746	-5.69713E-001	-3.13561E-005	0.00000E+000	-5.70000E-001	1.01522E-003	7	...........	-327.66
	376	0.0754	-6.09850E-001	-3.23273E-005	0.00000E+000	-6.10000E-001	1.14022E-003	7	...........	-327.66
	380	0.0762	-6.49675E-001	-3.32196E-005	0.00000E+000	-6.50000E-001	1.11522E-003	7	...........	-327.66
	384	0.077	-6.89650E-001	-3.40182E-005	0.00000E+000	-6.90000E-001	1.19022E-003	7	...........	-327.66
	388	0.0778	-7.29663E-001	-3.46996E-005	0.00000E+000	-7.30000E-001	1.24022E-003	7	...........	-327.66
	392	0.0786	-7.69638E-001	-3.52356E-005	0.00000E+000	-7.70000E-001	1.21522E-003	7	...........	-327.66
	396	0.0794	-8.09638E-001	-3.55939E-005	0.00000E+000	-8.10000E-001	1.04022E-003	7	...........	-327.66
	400	0.0802	-8.49688E-001	-3.57435E-005	0.00000E+000	-8.50000E-001	1.16522E-003	7	...........	-327.66
	404	0.081	-8.89688E-001	-3.56320E-005	0.00000E+000	-8.90000E-001	9.40224E-004	7	...........	-327.66
	408	0.0818	-8.69775E-001	-2.92626E-005	0.00000E+000	-8.70000E-001	9.90224E-004	7	...........	-327.66
	412	0.0826	-8.29713E-001	-2.31613E-005	0.00000E+000	-8.30000E-001	1.19022E-003	7	...........	-327.66
	416	0.0834	-7.89688E-001	-1.81486E-005	0.00000E+000	-7.90000E-001	9.15224E-004	7	...........	-327.66
	420	0.0842	-7.49688E-001	-1.37002E-005	0.00000E+000	-7.50000E-001	9.90224E-004	7	...........	-327.66
	424	0.085	-7.09738E-001	-9.65216E-006	0.00000E+000	-7.10000E-001	1.04022E-003	7	...........	-327.66
	428	0.0858	-6.69788E-001	-5.95566E-006	0.00000E+000	-6.70000E-001	1.14022E-003	7	...........	-327.66
	432	0.0866	-6.29738E-001	-2.56370E-006	0.00000E+000	-6.30000E-001	1.01522E-003	7	...........	-327.66
	436	0.0874	-5.89813E-001	5.58230E-007	0.00000E+000	-5.90000E-001	1.14022E-003	7	...........	-327.66
	440	0.0882	-5.49688E-001	3.46838E-006	0.00000E+000	-5.50000E-001	1.11522E-003	7	...........	-327.66
	444	0.089	-5.09813E-001	6.22150E-006	0.00000E+000	-5.10000E-001	1.04022E-003	7	...........	-327.66
	448	0.0898	-4.69763E-001	8.85036E-006	0.00000E+000	-4.70000E-001	1.09022E-003	7	...........	-327.66
	452	0.0906	-4.29900E-001	1.13660E-005	0.00000E+000	-4.30000E-001	1.09022E-003	7	...........	-327.66
	456	0.0914	-3.89950E-001	1.37808E-005	0.00000E+000	-3.90000E-001	9.65224E-004	7	...........	-327.66
	460	0.0922	-3.49988E-001	1.60726E-005	0.00000E+000	-3.50000E-001	1.14022E-003	7	...........	-327.66
	464	0.093	-3.09963E-001	1.82079E-005	0.00000E+000	-3.10000E-001	1.14022E-003	7	...........	-327.66
	468	0.0938	-2.69963E-001	2.01747E-005	0.00000E+000	-2.70000E-001	1.16522E-003	7	...........	-327.66
	472	0.0946	-2.30025E-001	2.19474E-005	0.00000E+000	-2.30000E-001	9.65224E-004	7	...........	-327.66
	476	0.0954	-1.89888E-001	2.35201E-005	0.00000E+000	-1.90000E-001	9.90224E-004	7	...........	-327.66
	480	0.0962	-1.50050E-001	2.48965E-005	0.00000E+000	-1.50000E-001	1.01522E-003	7	...........	-327.66
	484	0.097	-1.10013E-001	2.61067E-005	0.00000E+000	-1.10000E-001	1.09022E-003	7	...........	-327.66
	488	0.0978	-7.00127E-002	2.71514E-005	0.00000E+000	-7.00000E-002	1.14022E-003	7	...........	-327.66
	492	0.0986	-2.99127E-002	2.80722E-005	0.00000E+000	-3.00000E-002	1.09022E-003	7	...........	-327.66
	496	0.0994	9.99981E-003	2.88863E-005	0.00000E+000	9.99999E-003	1.04022E-003	7	...........	-327.66
[...]
	696	0.1394	-8.09575E-001	-3.58940E-005	0.00000E+000	-8.10000E-001	1.29022E-003	7	...........	-327.66
	700	0.1402	-8.49688E-001	-3.59975E-005	0.00000E+000	-8.50000E-001	9.90224E-004	7	...........	-327.66
	704	0.141	-8.89725E-001	-3.58627E-005	0.00000E+000	-8.90000E-001	1.04022E-003	7	...........	-327.66
	708	0.1418	-8.69713E-001	-2.93583E-005	0.00000E+000	-8.70000E-001	1.21522E-003	7	...........	-327.66
	712	0.1426	-8.29638E-001	-2.30475E-005	0.00000E+000	-8.30000E-001	1.11522E-003	7	...........	-327.66
	716	0.1434	-7.89700E-001	-1.78700E-005	0.00000E+000	-7.90000E-001	1.16522E-003	7	...........	-327.66
	720	0.1442	-7.49638E-001	-1.33004E-005	0.00000E+000	-7.50000E-001	1.19022E-003	7	...........	-327.66
	724	0.145	-7.09763E-001	-9.19135E-006	0.00000E+000	-7.10000E-001	1.14022E-003	7	...........	-327.66
	728	0.1458	-6.69788E-001	-5.48234E-006	0.00000E+000	-6.70000E-001	1.16522E-003	7	...........	-327.66
	732	0.1466	-6.29700E-001	-2.11363E-006	0.00000E+000	-6.30000E-001	1.09022E-003	7	...........	-327.66
	736	0.1474	-5.89825E-001	9.75787E-007	0.00000E+000	-5.90000E-001	1.06522E-003	7	...........	-327.66
	740	0.1482	-5.49813E-001	3.85018E-006	0.00000E+000	-5.50000E-001	1.11522E-003	7	...........	-327.66
	744	0.149	-5.09713E-001	6.58255E-006	0.00000E+000	-5.10000E-001	1.24022E-003	7	...........	-327.66
	748	0.1498	-4.69788E-001	9.19641E-006	0.00000E+000	-4.70000E-001	1.09022E-003	7	...........	-327.66
	752	0.1506	-4.29913E-001	1.17368E-005	0.00000E+000	-4.30000E-001	1.04022E-003	7	...........	-327.66
	756	0.1514	-3.89975E-001	1.41813E-005	0.00000E+000	-3.90000E-001	1.01522E-003	7	...........	-327.66
	760	0.1522	-3.49938E-001	1.65089E-005	0.00000E+000	-3.50000E-001	1.16522E-003	7	...........	-327.66
	764	0.153	-3.10025E-001	1.86739E-005	0.00000E+000	-3.10000E-001	1.11522E-003	7	...........	-327.66
	768	0.1538	-2.70038E-001	2.06670E-005	0.00000E+000	-2.70000E-001	1.16522E-003	7	...........	-327.66
	772	0.1546	-2.29975E-001	2.24625E-005	0.00000E+000	-2.30000E-001	9.65224E-004	7	...........	-327.66
	776	0.1554	-1.90025E-001	2.40397E-005	0.00000E+000	-1.90000E-001	1.06522E-003	7	...........	-327.66
	780	0.1562	-1.50000E-001	2.54176E-005	0.00000E+000	-1.50000E-001	1.11522E-003	7	...........	-327.66
	784	0.157	-1.10063E-001	2.66195E-005	0.00000E+000	-1.10000E-001	1.16522E-003	7	...........	-327.66
	788	0.1578	-6.99877E-002	2.76699E-005	0.00000E+000	-7.00000E-002	1.04022E-003	7	...........	-327.66
	792	0.1586	-2.99127E-002	2.86078E-005	0.00000E+000	-3.00000E-002	1.19022E-003	7	...........	-327.66
	796	0.1594	9.98731E-003	2.94297E-005	0.00000E+000	9.99999E-003	1.14022E-003	7	...........	-327.66
	800	0.1602	4.99998E-002	3.00985E-005	0.00000E+000	5.00000E-002	1.29022E-003	7	...........	-327.66
	804	0.161	9.00873E-002	3.06196E-005	0.00000E+000	9.00000E-002	9.65224E-004	7	...........	-327.66
	808	0.1618	1.30050E-001	3.09724E-005	0.00000E+000	1.30000E-001	1.24022E-003	7	...........	-327.66
	812	0.1626	1.70212E-001	3.11727E-005	0.00000E+000	1.70000E-001	1.24022E-003	7	...........	-327.66
	816	0.1634	2.09937E-001	3.12519E-005	0.00000E+000	2.10000E-001	1.04022E-003	7	...........	-327.66
	820	0.1642	2.50025E-001	3.12447E-005	0.00000E+000	2.50000E-001	1.06522E-003	7	...........	-327.66
	824	0.165	2.89925E-001	3.11679E-005	0.00000E+000	2.90000E-001	1.16522E-003	7	...........	-327.66
	828	0.1658	3.30075E-001	3.10436E-005	0.00000E+000	3.30000E-001	1.06522E-003	7	...........	-327.66
	832	0.1666	3.69987E-001	3.08909E-005	0.00000E+000	3.70000E-001	1.21522E-003	7	...........	-327.66
	836	0.1674	4.09875E-001	3.07261E-005	0.00000E+000	4.10000E-001	1.06522E-003	7	...........	-327.66
	840	0.1682	4.50112E-001	3.05713E-005	0.00000E+000	4.50000E-001	1.14022E-003	7	...........	-327.66
	844	0.169	4.89937E-001	3.04220E-005	0.00000E+000	4.90000E-001	1.21522E-003	7	...........	-327.66
	848	0.1698	5.29962E-001	3.03130E-005	0.00000E+000	5.30000E-001	1.14022E-003	7	...........	-327.66
	852	0.1706	5.69950E-001	3.02418E-005	0.00000E+000	5.70000E-001	1.11522E-003	7	...........	-327.66
	855	0.1712	5.99975E-001	3.02283E-005	0.00000E+000	6.00000E-001	1.06522E-003	7	...........	-327.66
CURVE4	TABLE
	Pt	T	Vf	Im	Vu	Sig	Ach	IERange	Over	Temp
	#	s	V vs. Ref.	A	V	V	V	#	bits	deg C
	856	0.1714	5.89962E-001	2.76309E-005	0.00000E+000	5.90000E-001	1.29022E-003	7	...........	-327.66
	857	0.1716	5.79987E-001	2.52138E-005	0.00000E+000	5.80000E-001	1.11522E-003	7	...........	-327.66
	858	0.1718	5.70025E-001	2.31976E-005	0.00000E+000	5.70000E-001	1.09022E-003	7	...........	-327.66
	859	0.172	5.59912E-001	2.14461E-005	0.00000E+000	5.60000E-001	1.11522E-003	7	...........	-327.66
	860	0.1722	5.50050E-001	1.98806E-005	0.00000E+000	5.50000E-001	1.11522E-003	7	...........	-327.66
	861	0.1724	5.39937E-001	1.84557E-005	0.00000E+000	5.40000E-001	1.14022E-003	7	...........	-327.66
	862	0.1726	5.29962E-001	1.71425E-005	0.00000E+000	5.30000E-001	1.06522E-003	7	...........	-327.66
	863	0.1728	5.19975E-001	1.59173E-005	0.00000E+000	5.20000E-001	1.19022E-003	7	...........	-327.66
	864	0.173	5.10025E-001	1.47672E-005	0.00000E+000	5.10000E-001	1.21522E-003	7	...........	-327.66
	865	0.1732	4.99975E-001	1.36818E-005	0.00000E+000	5.00000E-001	1.04022E-003	7	...........	-327.66
	866	0.1734	4.90087E-001	1.26466E-005	0.00000E+000	4.90000E-001	1.06522E-003	7	...........	-327.66
	867	0.1736	4.79912E-001	1.16587E-005	0.00000E+000	4.80000E-001	1.19022E-003	7	...........	-327.66
	868	0.1738	4.69962E-001	1.07156E-005	0.00000E+000	4.70000E-001	1.09022E-003	7	...........	-327.66
	869	0.174	4.59937E-001	9.80949E-006	0.00000E+000	4.60000E-001	9.90224E-004	7	...........	-327.66
	870	0.1742	4.49937E-001	8.93712E-006	0.00000E+000	4.50000E-001	1.14022E-003	7	...........	-327.66
	871	0.1744	4.39937E-001	8.09301E-006	0.00000E+000	4.40000E-001	1.14022E-003	7	...........	-327.66
	872	0.1746	4.29987E-001	7.28140E-006	0.00000E+000	4.30000E-001	1.16522E-003	7	...........	-327.66
	873	0.1748	4.19975E-001	6.49279E-006	0.00000E+000	4.20000E-001	1.11522E-003	7	...........	-327.66
	874	0.175	4.10012E-001	5.72793E-006	0.00000E+000	4.10000E-001	9.90224E-004	7	...........	-327.66
	875	0.1752	3.99962E-001	4.98683E-006	0.00000E+000	4.00000E-001	1.16522E-003	7	...........	-327.66
	876	0.1754	3.89962E-001	4.26649E-006	0.00000E+000	3.90000E-001	1.11522E-003	7	...........	-327.66
	877	0.1756	3.79987E-001	3.56764E-006	0.00000E+000	3.80000E-001	1.01522E-003	7	...........	-327.66
	878	0.1758	3.69987E-001	2.88805E-006	0.00000E+000	3.70000E-001	1.14022E-003	7	...........	-327.66
	879	0.176	3.59937E-001	2.22221E-006	0.00000E+000	3.60000E-001	1.19022E-003	7	...........	-327.66
	880	0.1762	3.50112E-001	1.57412E-006	0.00000E+000	3.50000E-001	1.29022E-003	7	...........	-327.66
	881	0.1764	3.40012E-001	9.40532E-007	0.00000E+000	3.40000E-001	9.65224E-004	7	...........	-327.66
	882	0.1766	3.30125E-001	3.24198E-007	0.00000E+000	3.30000E-001	8.90224E-004	7	...........	-327.66
	883	0.1768	3.20000E-001	-2.83385E-007	0.00000E+000	3.20000E-001	9.15224E-004	7	...........	-327.66
	884	0.177	3.10112E-001	-8.70965E-007	0.00000E+000	3.10000E-001	1.09022E-003	7	...........	-327.66
	885	0.1772	3.00025E-001	-1.45229E-006	0.00000E+000	3.00000E-001	9.40224E-004	7	...........	-327.66
	886	0.1774	2.90062E-001	-2.01987E-006	0.00000E+000	2.90000E-001	1.11522E-003	7	...........	-327.66
	887	0.1776	2.80000E-001	-2.57270E-006	0.00000E+000	2.80000E-001	1.24022E-003	7	...........	-327.66
	888	0.1778	2.70100E-001	-3.11802E-006	0.00000E+000	2.70000E-001	1.24022E-003	7	...........	-327.66
	889	0.178	2.60012E-001	-3.65484E-006	0.00000E+000	2.60000E-001	1.01522E-003	7	...........	-327.66
	890	0.1782	2.50225E-001	-4.17942E-006	0.00000E+000	2.50000E-001	1.11522E-003	7	...........	-327.66
	891	0.1784	2.40050E-001	-4.69324E-006	0.00000E+000	2.40000E-001	1.16522E-003	7	...........	-327.66
	892	0.1786	2.30062E-001	-5.19880E-006	0.00000E+000	2.30000E-001	1.06522E-003	7	...........	-327.66
	893	0.1788	2.20100E-001	-5.69662E-006	0.00000E+000	2.20000E-001	1.11522E-003	7	...........	-327.66
	894	0.179	2.10025E-001	-6.18944E-006	0.00000E+000	2.10000E-001	1.04022E-003	7	...........	-327.66
	895	0.1792	2.00137E-001	-6.67126E-006	0.00000E+000	2.00000E-001	1.14022E-003	7	...........	-327.66
	896	0.1794	1.90112E-001	-7.14607E-006	0.00000E+000	1.90000E-001	1.19022E-003	7	...........	-327.66
	897	0.1796	1.80150E-001	-7.61688E-006	0.00000E+000	1.80000E-001	1.09022E-003	7	...........	-327.66
	898	0.1798	1.70125E-001	-8.07670E-006	0.00000E+000	1.70000E-001	1.21522E-003	7	...........	-327.66
	899	0.18	1.60125E-001	-8.53601E-006	0.00000E+000	1.60000E-001	1.24022E-003	7	...........	-327.66
	900	0.1802	1.50200E-001	-8.98182E-006	0.00000E+000	1.50000E-001	1.11522E-003	7	...........	-327.66