File: Test_Data_Files/20250509_ZL_IF0011_IIA42_E09_PBSair_PEDOT_CV50.DTA
EXPLAIN
TAG	CV
TITLE	LABEL	CV50	Test Identifier
DATE	LABEL	5/9/2025	Date
TIME	LABEL	15:45:17	Time
NOTES	NOTES	1	Notes...

PSTAT	PSTAT	REF600P-43058	Potentiostat
VINIT	POTEN	0.00000E+000	T	Initial E (V)
VLIMIT1	POTEN	-9.00000E-001	F	Scan Limit 1 (V)
VLIMIT2	POTEN	6.00000E-001	F	Scan Limit 2 (V)
VFINAL	POTEN	0.00000E+000	T	Final E (V)
SCANRATE	QUANT	4.99999E+001	Scan Rate (mV/s)
STEPSIZE	QUANT	1.00000E+001	Step Size (mV)
CYCLES	IQUANT	3	Cycles (#)
IMODE	SELECTOR	1	I/E Range Mode
IRANGE	QUANT	1.00000E-003	Max Current (mA)
AREA	QUANT	1.00000E+000	Sample Area (cm^2)
EQDELAY	QUANT	5.00000E+000	Equil. Time (s)
IRCOMP	SELECTOR	0	IRComp
PFCOR	QUANT	5.00000E+001	PF Corr. (ohm)
SAMPLINGMODE	SELECTOR	2	Sampling Mode
EOC	QUANT	0.1477523	Open Circuit (V)
ELECTRODETYPE	SELECTOR	0	Electrode Type
STRIPPING	TOGGLE	F	Used for Stripping
SEQUENCER	TOGGLE	TRUE	Run as Sequence
PSTATMODEL	IQUANT	7	Pstat Model
PSTATSECTION	LABEL	REF600P-43058	Pstat Section
PSTATSERIALNO	LABEL	43058	Pstat Serial Number
CTRLMODE	IQUANT	1	Control Mode
ELECTROMETER	IQUANT	0	RE=0 or CS=1
IESTAB	IQUANT	2	I/E Stability
CASPEED	IQUANT	4	Control Amp Speed
CONVENTION	IQUANT	1	Current Convention
ICHRANGE	IQUANT	2	Ich Range
ICHRANGEMODE	TOGGLE	F	Ich Auto Range
ICHOFFSETENABLE	TOGGLE	F	Ich Offset Enable
ICHOFFSET	QUANT	0	Ich Offset (V)
ICHFILTER	IQUANT	2	Ich Filter
VCHRANGE	IQUANT	2	Vch Range
VCHRANGEMODE	TOGGLE	F	Vch Auto Range
VCHOFFSETENABLE	TOGGLE	F	Vch Offset Enable
VCHOFFSET	QUANT	0	Vch Offset (V)
VCHFILTER	IQUANT	2	Vch Filter
ACHRANGE	IQUANT	2	Ach Range
ACHOFFSETENABLE	TOGGLE	F	Ach Offset Enable
ACHOFFSET	QUANT	0	Ach Offset (V)
ACHFILTER	IQUANT	1	Ach Filter
IERANGELOWERLIMIT	IQUANT	1	I/E Range Lower Limit
IERANGEMODE	TOGGLE	F	I/E AutoRange
IERANGE	IQUANT	6	I/E Range
POSFEEDENABLE	TOGGLE	F	Positive Feedback IR Comp
POSFEEDRESISTANCE	QUANT	0	Positive Feedback Resistance (ohm)
ACHSELECT	IQUANT	4	Ach Select
SENSECABLEID	IQUANT	7	Sense Cable ID
PWRCABLEID	IQUANT	7	Power Cable ID
DCCALDATE	LABEL	5/8/2025	DC Calibration Date
ACCALDATE	LABEL	5/8/2025	AC Calibration Date
THERMOSELECT	IQUANT	1	Thermo Select
FRAMEWORKVERSION	LABEL	7.10.4	Framework Version
INSTRUMENTVERSION	LABEL	5.01	Instrument Version
COMMVERSION	LABEL	5.10	Communications Version
CPUPLDVERSION	LABEL	6.00	CPU PLD Version
CTRLPLDVERSION	LABEL	3.21	CTRL PLD Version
PSTATPLDVERSION	LABEL	0.00	PSTAT PLD Version
CURVE1	TABLE
	Pt	T	Vf	Im	Vu	Sig	Ach	IERange	Over	Temp
	#	s	V vs. Ref.	A	V	V	V	#	bits	deg C
	0	0.2	1.47914E-001	5.36694E-010	0.00000E+000	1.47750E-001	1.43801E-003	6	...........	-327.66
	3	0.8	1.17771E-001	-3.13343E-008	0.00000E+000	1.17750E-001	1.43489E-003	6	...........	-327.66
	6	1.4	8.78028E-002	-3.20968E-008	0.00000E+000	8.77500E-002	1.44551E-003	6	...........	-327.66
	9	2	5.77515E-002	-3.29967E-008	0.00000E+000	5.77500E-002	1.42377E-003	6	...........	-327.66
	12	2.6	2.78677E-002	-3.39704E-008	0.00000E+000	2.77500E-002	1.43971E-003	6	...........	-327.66
	15	3.2	-2.27661E-003	-3.51256E-008	0.00000E+000	-2.25002E-003	1.44731E-003	6	...........	-327.66
	18	3.8	-3.22017E-002	-3.63310E-008	0.00000E+000	-3.22500E-002	1.43414E-003	6	...........	-327.66
	21	4.4	-6.22529E-002	-3.75888E-008	0.00000E+000	-6.22500E-002	1.44476E-003	6	...........	-327.66
	24	5	-9.21748E-002	-3.90331E-008	0.00000E+000	-9.22500E-002	1.43194E-003	6	...........	-327.66
	27	5.6	-1.22261E-001	-4.07753E-008	0.00000E+000	-1.22250E-001	1.43429E-003	6	...........	-327.66
	30	6.2	-1.52269E-001	-4.25065E-008	0.00000E+000	-1.52250E-001	1.43269E-003	6	...........	-327.66
	33	6.8	-1.82288E-001	-4.45533E-008	0.00000E+000	-1.82250E-001	1.42590E-003	6	...........	-327.66
	36	7.4	-2.12082E-001	-4.68987E-008	0.00000E+000	-2.12250E-001	1.44451E-003	6	...........	-327.66
	39	8	-2.42205E-001	-4.93351E-008	0.00000E+000	-2.42250E-001	1.43547E-003	6	...........	-327.66
	42	8.6	-2.72171E-001	-5.18687E-008	0.00000E+000	-2.72250E-001	1.44249E-003	6	...........	-327.66
	45	9.2	-3.02230E-001	-5.45571E-008	0.00000E+000	-3.02250E-001	1.44458E-003	6	...........	-327.66
	48	9.8	-3.32190E-001	-5.73034E-008	0.00000E+000	-3.32250E-001	1.45021E-003	6	...........	-327.66
	51	10.4	-3.62223E-001	-6.02210E-008	0.00000E+000	-3.62250E-001	1.43527E-003	6	...........	-327.66
	54	11	-3.92177E-001	-6.31340E-008	0.00000E+000	-3.92250E-001	1.44226E-003	6	...........	-327.66
	57	11.6	-4.22224E-001	-6.59532E-008	0.00000E+000	-4.22250E-001	1.43742E-003	6	...........	-327.66
	60	12.2	-4.52076E-001	-6.87593E-008	0.00000E+000	-4.52250E-001	1.44106E-003	6	...........	-327.66
	63	12.8	-4.82157E-001	-7.19117E-008	0.00000E+000	-4.82250E-001	1.44834E-003	6	...........	-327.66
	66	13.4	-5.12098E-001	-7.50405E-008	0.00000E+000	-5.12250E-001	1.43322E-003	6	...........	-327.66
	69	14	-5.42223E-001	-7.82655E-008	0.00000E+000	-5.42250E-001	1.44668E-003	6	...........	-327.66
	72	14.6	-5.72021E-001	-8.16529E-008	0.00000E+000	-5.72250E-001	1.44804E-003	6	...........	-327.66
	75	15.2	-6.02118E-001	-8.47814E-008	0.00000E+000	-6.02250E-001	1.44137E-003	6	...........	-327.66
	78	15.8	-6.32057E-001	-8.74891E-008	0.00000E+000	-6.32250E-001	1.45248E-003	6	...........	-327.66
	81	16.4	-6.62151E-001	-8.95508E-008	0.00000E+000	-6.62250E-001	1.43672E-003	6	...........	-327.66
	84	17	-6.92040E-001	-8.96463E-008	0.00000E+000	-6.92250E-001	1.45171E-003	6	...........	-327.66
	87	17.6	-7.22184E-001	-8.60613E-008	0.00000E+000	-7.22250E-001	1.44726E-003	6	...........	-327.66
	90	18.2	-7.52091E-001	-7.74811E-008	0.00000E+000	-7.52250E-001	1.44513E-003	6	...........	-327.66
	93	18.8	-7.82104E-001	-6.61488E-008	0.00000E+000	-7.82250E-001	1.45116E-003	6	...........	-327.66
	96	19.4	-8.12027E-001	-5.36359E-008	0.00000E+000	-8.12250E-001	1.43952E-003	6	...........	-327.66
	99	20	-8.42168E-001	-4.31189E-008	0.00000E+000	-8.42250E-001	1.43767E-003	6	...........	-327.66
	102	20.6	-8.72023E-001	-3.51795E-008	0.00000E+000	-8.72250E-001	1.44868E-003	6	...........	-327.66
	105	21.2	-9.02155E-001	-3.00085E-008	0.00000E+000	-9.02250E-001	1.43569E-003	6	...........	-327.66
	108	21.8	-8.72196E-001	-2.17537E-008	0.00000E+000	-8.72250E-001	1.44354E-003	6	...........	-327.66
	111	22.4	-8.42228E-001	-1.71638E-008	0.00000E+000	-8.42250E-001	1.43269E-003	6	...........	-327.66
	114	23	-8.12075E-001	-1.22327E-008	0.00000E+000	-8.12250E-001	1.44471E-003	6	...........	-327.66
	117	23.6	-7.82136E-001	-5.53584E-009	0.00000E+000	-7.82250E-001	1.44368E-003	6	...........	-327.66
	120	24.2	-7.52136E-001	4.26279E-009	0.00000E+000	-7.52250E-001	1.43779E-003	6	...........	-327.66
	123	24.8	-7.22185E-001	1.64946E-008	0.00000E+000	-7.22250E-001	1.45208E-003	6	...........	-327.66
	126	25.4	-6.92092E-001	2.56191E-008	0.00000E+000	-6.92250E-001	1.45596E-003	6	...........	-327.66
	129	26	-6.62199E-001	2.75816E-008	0.00000E+000	-6.62250E-001	1.44571E-003	6	...........	-327.66
	132	26.6	-6.32167E-001	2.80003E-008	0.00000E+000	-6.32250E-001	1.45168E-003	6	...........	-327.66
	135	27.2	-6.02174E-001	2.88911E-008	0.00000E+000	-6.02250E-001	1.45533E-003	6	...........	-327.66
	138	27.8	-5.72104E-001	3.01194E-008	0.00000E+000	-5.72250E-001	1.45026E-003	6	...........	-327.66
	141	28.4	-5.42264E-001	3.14626E-008	0.00000E+000	-5.42250E-001	1.45685E-003	6	...........	-327.66
	144	29	-5.12262E-001	3.29706E-008	0.00000E+000	-5.12250E-001	1.44793E-003	6	...........	-327.66
	147	29.6	-4.82263E-001	3.45469E-008	0.00000E+000	-4.82250E-001	1.45108E-003	6	...........	-327.66
	150	30.2	-4.52116E-001	3.66054E-008	0.00000E+000	-4.52250E-001	1.45655E-003	6	...........	-327.66
	153	30.8	-4.22283E-001	3.83754E-008	0.00000E+000	-4.22250E-001	1.44249E-003	6	...........	-327.66
	156	31.4	-3.92232E-001	4.03377E-008	0.00000E+000	-3.92250E-001	1.45900E-003	6	...........	-327.66
	159	32	-3.62274E-001	4.21377E-008	0.00000E+000	-3.62250E-001	1.44157E-003	6	...........	-327.66
	162	32.6	-3.32225E-001	4.38376E-008	0.00000E+000	-3.32250E-001	1.45041E-003	6	...........	-327.66
	165	33.2	-3.02281E-001	4.52469E-008	0.00000E+000	-3.02250E-001	1.45099E-003	6	...........	-327.66
	168	33.8	-2.72228E-001	4.66237E-008	0.00000E+000	-2.72250E-001	1.44092E-003	6	...........	-327.66
	171	34.4	-2.42263E-001	4.76972E-008	0.00000E+000	-2.42250E-001	1.44779E-003	6	...........	-327.66
	174	35	-2.12129E-001	4.86177E-008	0.00000E+000	-2.12250E-001	1.45123E-003	6	...........	-327.66
	177	35.6	-1.82314E-001	4.95163E-008	0.00000E+000	-1.82250E-001	1.43649E-003	6	...........	-327.66
	180	36.2	-1.52314E-001	5.00896E-008	0.00000E+000	-1.52250E-001	1.44659E-003	6	...........	-327.66
	183	36.8	-1.22333E-001	5.05266E-008	0.00000E+000	-1.22250E-001	1.43896E-003	6	...........	-327.66
	186	37.4	-9.22040E-002	5.13408E-008	0.00000E+000	-9.22500E-002	1.44941E-003	6	...........	-327.66
	189	38	-6.22839E-002	5.15546E-008	0.00000E+000	-6.22500E-002	1.44769E-003	6	...........	-327.66
	192	38.6	-3.22694E-002	5.19146E-008	0.00000E+000	-3.22500E-002	1.44099E-003	6	...........	-327.66
	195	39.2	-2.31756E-003	5.22005E-008	0.00000E+000	-2.25002E-003	1.45703E-003	6	...........	-327.66
	198	39.8	2.78193E-002	5.25359E-008	0.00000E+000	2.77500E-002	1.45071E-003	6	...........	-327.66
	201	40.4	5.77171E-002	5.28911E-008	0.00000E+000	5.77500E-002	1.45354E-003	6	...........	-327.66
	204	41	8.77525E-002	5.33189E-008	0.00000E+000	8.77500E-002	1.46056E-003	6	...........	-327.66
	207	41.6	1.17749E-001	5.39048E-008	0.00000E+000	1.17750E-001	1.44973E-003	6	...........	-327.66
	210	42.2	1.47848E-001	5.44614E-008	0.00000E+000	1.47750E-001	1.45096E-003	6	...........	-327.66
	213	42.8	1.77764E-001	5.49772E-008	0.00000E+000	1.77750E-001	1.45955E-003	6	...........	-327.66
	216	43.4	2.07703E-001	5.53707E-008	0.00000E+000	2.07750E-001	1.44694E-003	6	...........	-327.66
	219	44	2.37699E-001	5.56810E-008	0.00000E+000	2.37750E-001	1.45503E-003	6	...........	-327.66
	222	44.6	2.67719E-001	5.61631E-008	0.00000E+000	2.67750E-001	1.45059E-003	6	...........	-327.66
	225	45.2	2.97683E-001	5.66798E-008	0.00000E+000	2.97750E-001	1.44454E-003	6	...........	-327.66
	228	45.8	3.27733E-001	5.73395E-008	0.00000E+000	3.27750E-001	1.45380E-003	6	...........	-327.66
	231	46.4	3.57724E-001	5.81284E-008	0.00000E+000	3.57750E-001	1.44724E-003	6	...........	-327.66
	234	47	3.87721E-001	5.91606E-008	0.00000E+000	3.87750E-001	1.45279E-003	6	...........	-327.66
	237	47.6	4.17658E-001	6.02860E-008	0.00000E+000	4.17750E-001	1.45269E-003	6	...........	-327.66
	240	48.2	4.47684E-001	6.16626E-008	0.00000E+000	4.47750E-001	1.45303E-003	6	...........	-327.66
	243	48.8	4.77679E-001	6.30708E-008	0.00000E+000	4.77750E-001	1.45460E-003	6	...........	-327.66
	246	49.4	5.07748E-001	6.47018E-008	0.00000E+000	5.07750E-001	1.44886E-003	6	...........	-327.66
	249	50	5.37650E-001	6.64360E-008	0.00000E+000	5.37750E-001	1.44009E-003	6	...........	-327.66
	252	50.6	5.67658E-001	6.85446E-008	0.00000E+000	5.67750E-001	1.45583E-003	6	...........	-327.66
	255	51.2	5.97667E-001	7.12733E-008	0.00000E+000	5.97750E-001	1.44461E-003	6	...........	-327.66
CURVE2	TABLE
	Pt	T	Vf	Im	Vu	Sig	Ach	IERange	Over	Temp
	#	s	V vs. Ref.	A	V	V	V	#	bits	deg C
	256	51.4	5.89987E-001	2.63123E-009	0.00000E+000	5.90000E-001	1.44734E-003	6	...........	-327.66
	259	52	5.59963E-001	-2.04668E-008	0.00000E+000	5.60000E-001	1.44686E-003	6	...........	-327.66
	262	52.6	5.30015E-001	-2.61517E-008	0.00000E+000	5.30000E-001	1.44104E-003	6	...........	-327.66
	265	53.2	5.00009E-001	-2.91782E-008	0.00000E+000	5.00000E-001	1.45858E-003	6	...........	-327.66
	268	53.8	4.69975E-001	-3.11282E-008	0.00000E+000	4.70000E-001	1.44366E-003	6	...........	-327.66
	271	54.4	4.39940E-001	-3.25295E-008	0.00000E+000	4.40000E-001	1.44594E-003	6	...........	-327.66
	274	55	4.09979E-001	-3.34888E-008	0.00000E+000	4.10000E-001	1.42944E-003	6	...........	-327.66
	277	55.6	3.80001E-001	-3.43816E-008	0.00000E+000	3.80000E-001	1.43356E-003	6	...........	-327.66
	280	56.2	3.50026E-001	-3.51266E-008	0.00000E+000	3.50000E-001	1.44489E-003	6	...........	-327.66
	283	56.8	3.19992E-001	-3.57761E-008	0.00000E+000	3.20000E-001	1.43904E-003	6	...........	-327.66
	286	57.4	2.90006E-001	-3.63133E-008	0.00000E+000	2.90000E-001	1.43662E-003	6	...........	-327.66
	289	58	2.60004E-001	-3.69359E-008	0.00000E+000	2.60000E-001	1.44136E-003	6	...........	-327.66
	292	58.6	2.29999E-001	-3.74125E-008	0.00000E+000	2.30000E-001	1.43337E-003	6	...........	-327.66
	295	59.2	2.00001E-001	-3.79355E-008	0.00000E+000	2.00000E-001	1.42794E-003	6	...........	-327.66
	298	59.8	1.70102E-001	-3.84850E-008	0.00000E+000	1.70000E-001	1.43047E-003	6	...........	-327.66
	301	60.4	1.40091E-001	-3.90436E-008	0.00000E+000	1.40000E-001	1.43822E-003	6	...........	-327.66
	304	61	1.10019E-001	-3.95740E-008	0.00000E+000	1.10000E-001	1.43247E-003	6	...........	-327.66
	307	61.6	7.99912E-002	-4.01702E-008	0.00000E+000	8.00000E-002	1.42375E-003	6	...........	-327.66
	310	62.2	5.00273E-002	-4.07126E-008	0.00000E+000	5.00000E-002	1.43414E-003	6	...........	-327.66
	313	62.8	2.00080E-002	-4.14641E-008	0.00000E+000	2.00000E-002	1.42960E-003	6	...........	-327.66
	316	63.4	-9.96847E-003	-4.20506E-008	0.00000E+000	-1.00000E-002	1.42342E-003	6	...........	-327.66
	319	64	-3.99467E-002	-4.27526E-008	0.00000E+000	-4.00000E-002	1.42630E-003	6	...........	-327.66
	322	64.6	-6.99483E-002	-4.34637E-008	0.00000E+000	-7.00000E-002	1.42540E-003	6	...........	-327.66
	325	65.2	-9.99828E-002	-4.42961E-008	0.00000E+000	-1.00000E-001	1.42492E-003	6	...........	-327.66
	328	65.8	-1.30006E-001	-4.50683E-008	0.00000E+000	-1.30000E-001	1.43499E-003	6	...........	-327.66
	331	66.4	-1.60004E-001	-4.59758E-008	0.00000E+000	-1.60000E-001	1.43060E-003	6	...........	-327.66
	334	67	-1.89871E-001	-4.69824E-008	0.00000E+000	-1.90000E-001	1.43494E-003	6	...........	-327.66
	337	67.6	-2.19900E-001	-4.81445E-008	0.00000E+000	-2.20000E-001	1.43827E-003	6	...........	-327.66
	340	68.2	-2.49982E-001	-4.94353E-008	0.00000E+000	-2.50000E-001	1.42407E-003	6	...........	-327.66
	343	68.8	-2.80010E-001	-5.08815E-008	0.00000E+000	-2.80000E-001	1.42830E-003	6	...........	-327.66
	346	69.4	-3.09969E-001	-5.25584E-008	0.00000E+000	-3.10000E-001	1.42348E-003	6	...........	-327.66
	349	70	-3.39991E-001	-5.44713E-008	0.00000E+000	-3.40000E-001	1.43052E-003	6	...........	-327.66
	352	70.6	-3.69867E-001	-5.62116E-008	0.00000E+000	-3.70000E-001	1.43571E-003	6	...........	-327.66
	355	71.2	-3.99967E-001	-5.79109E-008	0.00000E+000	-4.00000E-001	1.42674E-003	6	...........	-327.66
	358	71.8	-4.29938E-001	-5.96091E-008	0.00000E+000	-4.30000E-001	1.43189E-003	6	...........	-327.66
	361	72.4	-4.59955E-001	-6.12710E-008	0.00000E+000	-4.60000E-001	1.43275E-003	6	...........	-327.66
	364	73	-4.89942E-001	-6.29320E-008	0.00000E+000	-4.90000E-001	1.42559E-003	6	...........	-327.66
	367	73.6	-5.19987E-001	-6.47207E-008	0.00000E+000	-5.20000E-001	1.43726E-003	6	...........	-327.66
	370	74.2	-5.49825E-001	-6.62981E-008	0.00000E+000	-5.50000E-001	1.42667E-003	6	...........	-327.66
	373	74.8	-5.79856E-001	-6.78326E-008	0.00000E+000	-5.80000E-001	1.43356E-003	6	...........	-327.66
	376	75.4	-6.09916E-001	-6.91973E-008	0.00000E+000	-6.10000E-001	1.44074E-003	6	...........	-327.66
	379	76	-6.39952E-001	-7.02495E-008	0.00000E+000	-6.40000E-001	1.42208E-003	6	...........	-327.66
	382	76.6	-6.69795E-001	-7.07720E-008	0.00000E+000	-6.70000E-001	1.43769E-003	6	...........	-327.66
	385	77.2	-6.99949E-001	-7.03932E-008	0.00000E+000	-7.00000E-001	1.44566E-003	6	...........	-327.66
	388	77.8	-7.29863E-001	-6.71438E-008	0.00000E+000	-7.30000E-001	1.43519E-003	6	...........	-327.66
	391	78.4	-7.59901E-001	-6.10600E-008	0.00000E+000	-7.60000E-001	1.42835E-003	6	...........	-327.66
	394	79	-7.89878E-001	-5.31073E-008	0.00000E+000	-7.90000E-001	1.43230E-003	6	...........	-327.66
	397	79.6	-8.19915E-001	-4.44861E-008	0.00000E+000	-8.20000E-001	1.43934E-003	6	...........	-327.66
	400	80.2	-8.49884E-001	-3.65799E-008	0.00000E+000	-8.50000E-001	1.42640E-003	6	...........	-327.66
	403	80.8	-8.79945E-001	-3.09047E-008	0.00000E+000	-8.80000E-001	1.42850E-003	6	...........	-327.66
	406	81.4	-8.89942E-001	-2.33147E-008	0.00000E+000	-8.90000E-001	1.42870E-003	6	...........	-327.66
	409	82	-8.59898E-001	-1.70419E-008	0.00000E+000	-8.60000E-001	1.42835E-003	6	...........	-327.66
	412	82.6	-8.29771E-001	-1.20312E-008	0.00000E+000	-8.30000E-001	1.42935E-003	6	...........	-327.66
	415	83.2	-7.99981E-001	-5.91366E-009	0.00000E+000	-8.00000E-001	1.42594E-003	6	...........	-327.66
	418	83.8	-7.69983E-001	2.91614E-009	0.00000E+000	-7.70000E-001	1.43547E-003	6	...........	-327.66
	421	84.4	-7.39991E-001	1.43676E-008	0.00000E+000	-7.40000E-001	1.42312E-003	6	...........	-327.66
	424	85	-7.09924E-001	2.47034E-008	0.00000E+000	-7.10000E-001	1.42732E-003	6	...........	-327.66
	427	85.6	-6.79938E-001	2.77581E-008	0.00000E+000	-6.80000E-001	1.43197E-003	6	...........	-327.66
	430	86.2	-6.49940E-001	2.77489E-008	0.00000E+000	-6.50000E-001	1.42302E-003	6	...........	-327.66
	433	86.8	-6.19990E-001	2.81177E-008	0.00000E+000	-6.20000E-001	1.42929E-003	6	...........	-327.66
	436	87.4	-5.89981E-001	2.89670E-008	0.00000E+000	-5.90000E-001	1.43194E-003	6	...........	-327.66
	439	88	-5.60029E-001	2.98928E-008	0.00000E+000	-5.60000E-001	1.41920E-003	6	...........	-327.66
	442	88.6	-5.29990E-001	3.10497E-008	0.00000E+000	-5.30000E-001	1.42415E-003	6	...........	-327.66
	445	89.2	-4.99928E-001	3.23822E-008	0.00000E+000	-5.00000E-001	1.42889E-003	6	...........	-327.66
[...]
	736	147.4	-5.89970E-001	2.87402E-008	0.00000E+000	-5.90000E-001	1.44549E-003	6	...........	-327.66
	739	148	-5.60024E-001	2.95237E-008	0.00000E+000	-5.60000E-001	1.43340E-003	6	...........	-327.66
	742	148.6	-5.29984E-001	3.05698E-008	0.00000E+000	-5.30000E-001	1.45188E-003	6	...........	-327.66
	745	149.2	-4.99923E-001	3.18385E-008	0.00000E+000	-5.00000E-001	1.45328E-003	6	...........	-327.66
	748	149.8	-4.69885E-001	3.34104E-008	0.00000E+000	-4.70000E-001	1.44964E-003	6	...........	-327.66
	751	150.4	-4.40011E-001	3.51692E-008	0.00000E+000	-4.40000E-001	1.44129E-003	6	...........	-327.66
	754	151	-4.10005E-001	3.69030E-008	0.00000E+000	-4.10000E-001	1.44686E-003	6	...........	-327.66
	757	151.6	-3.80010E-001	3.86240E-008	0.00000E+000	-3.80000E-001	1.45341E-003	6	...........	-327.66
	760	152.2	-3.50004E-001	4.05175E-008	0.00000E+000	-3.50000E-001	1.44479E-003	6	...........	-327.66
	763	152.8	-3.20018E-001	4.21304E-008	0.00000E+000	-3.20000E-001	1.44761E-003	6	...........	-327.66
	766	153.4	-2.89974E-001	4.36655E-008	0.00000E+000	-2.90000E-001	1.45543E-003	6	...........	-327.66
	769	154	-2.60008E-001	4.49884E-008	0.00000E+000	-2.60000E-001	1.44401E-003	6	...........	-327.66
	772	154.6	-2.30001E-001	4.62846E-008	0.00000E+000	-2.30000E-001	1.44524E-003	6	...........	-327.66
	775	155.2	-2.00061E-001	4.71937E-008	0.00000E+000	-2.00000E-001	1.45276E-003	6	...........	-327.66
	778	155.8	-1.70023E-001	4.81157E-008	0.00000E+000	-1.70000E-001	1.45158E-003	6	...........	-327.66
	781	156.4	-1.40008E-001	4.88165E-008	0.00000E+000	-1.40000E-001	1.44834E-003	6	...........	-327.66
	784	157	-1.10004E-001	4.94646E-008	0.00000E+000	-1.10000E-001	1.44913E-003	6	...........	-327.66
	787	157.6	-8.00255E-002	5.01351E-008	0.00000E+000	-8.00000E-002	1.44207E-003	6	...........	-327.66
	790	158.2	-5.00386E-002	5.05108E-008	0.00000E+000	-5.00000E-002	1.44711E-003	6	...........	-327.66
	793	158.8	-2.00061E-002	5.09042E-008	0.00000E+000	-2.00000E-002	1.44036E-003	6	...........	-327.66
	796	159.4	1.00159E-002	5.15251E-008	0.00000E+000	9.99999E-003	1.45268E-003	6	...........	-327.66
	799	160	3.97814E-002	5.17793E-008	0.00000E+000	4.00000E-002	1.45686E-003	6	...........	-327.66
	802	160.6	7.00033E-002	5.22075E-008	0.00000E+000	7.00000E-002	1.44714E-003	6	...........	-327.66
	805	161.2	9.99853E-002	5.27296E-008	0.00000E+000	1.00000E-001	1.44779E-003	6	...........	-327.66
	808	161.8	1.30011E-001	5.35595E-008	0.00000E+000	1.30000E-001	1.44744E-003	6	...........	-327.66
	811	162.4	1.59979E-001	5.41802E-008	0.00000E+000	1.60000E-001	1.44037E-003	6	...........	-327.66
	814	163	1.89990E-001	5.48507E-008	0.00000E+000	1.90000E-001	1.45558E-003	6	...........	-327.66
	817	163.6	2.19932E-001	5.54194E-008	0.00000E+000	2.20000E-001	1.44641E-003	6	...........	-327.66
	820	164.2	2.50002E-001	5.60866E-008	0.00000E+000	2.50000E-001	1.43914E-003	6	...........	-327.66
	823	164.8	2.79959E-001	5.67096E-008	0.00000E+000	2.80000E-001	1.45129E-003	6	...........	-327.66
	826	165.4	3.09979E-001	5.74575E-008	0.00000E+000	3.10000E-001	1.43802E-003	6	...........	-327.66
	829	166	3.39978E-001	5.82909E-008	0.00000E+000	3.40000E-001	1.44591E-003	6	...........	-327.66
	832	166.6	3.69972E-001	5.93245E-008	0.00000E+000	3.70000E-001	1.44681E-003	6	...........	-327.66
	835	167.2	3.99946E-001	6.03326E-008	0.00000E+000	4.00000E-001	1.44524E-003	6	...........	-327.66
	838	167.8	4.29979E-001	6.14534E-008	0.00000E+000	4.30000E-001	1.44576E-003	6	...........	-327.66
	841	168.4	4.59973E-001	6.27415E-008	0.00000E+000	4.60000E-001	1.44749E-003	6	...........	-327.66
	844	169	4.89954E-001	6.42818E-008	0.00000E+000	4.90000E-001	1.44276E-003	6	...........	-327.66
	847	169.6	5.19949E-001	6.59731E-008	0.00000E+000	5.20000E-001	1.44979E-003	6	...........	-327.66
	850	170.2	5.49964E-001	6.80747E-008	0.00000E+000	5.50000E-001	1.44686E-003	6	...........	-327.66
	853	170.8	5.79974E-001	7.09475E-008	0.00000E+000	5.80000E-001	1.45228E-003	6	...........	-327.66
	855	171.2	5.99955E-001	7.33930E-008	0.00000E+000	6.00000E-001	1.45193E-003	6	...........	-327.66
CURVE4	TABLE
	Pt	T	Vf	Im	Vu	Sig	Ach	IERange	Over	Temp
	#	s	V vs. Ref.	A	V	V	V	#	bits	deg C
	856	171.4	5.89985E-001	-5.48038E-009	0.00000E+000	5.90000E-001	1.44187E-003	6	...........	-327.66
	857	171.6	5.79996E-001	-1.29279E-008	0.00000E+000	5.80000E-001	1.45428E-003	6	...........	-327.66
	858	171.8	5.69989E-001	-1.73625E-008	0.00000E+000	5.70000E-001	1.44586E-003	6	...........	-327.66
	859	172	5.59959E-001	-2.06385E-008	0.00000E+000	5.60000E-001	1.44484E-003	6	...........	-327.66
	860	172.2	5.49989E-001	-2.30433E-008	0.00000E+000	5.50000E-001	1.45516E-003	6	...........	-327.66
	861	172.4	5.39995E-001	-2.49128E-008	0.00000E+000	5.40000E-001	1.45063E-003	6	...........	-327.66
	862	172.6	5.30017E-001	-2.63020E-008	0.00000E+000	5.30000E-001	1.44828E-003	6	...........	-327.66
	863	172.8	5.19979E-001	-2.74668E-008	0.00000E+000	5.20000E-001	1.45738E-003	6	...........	-327.66
	864	173	5.09976E-001	-2.84550E-008	0.00000E+000	5.10000E-001	1.45821E-003	6	...........	-327.66
	865	173.2	5.00008E-001	-2.92932E-008	0.00000E+000	5.00000E-001	1.45221E-003	6	...........	-327.66
	866	173.4	4.89976E-001	-3.00232E-008	0.00000E+000	4.90000E-001	1.44853E-003	6	...........	-327.66
	867	173.6	4.79962E-001	-3.06793E-008	0.00000E+000	4.80000E-001	1.44076E-003	6	...........	-327.66
	868	173.8	4.69973E-001	-3.11745E-008	0.00000E+000	4.70000E-001	1.44262E-003	6	...........	-327.66
	869	174	4.59995E-001	-3.17455E-008	0.00000E+000	4.60000E-001	1.45014E-003	6	...........	-327.66
	870	174.2	4.50032E-001	-3.21288E-008	0.00000E+000	4.50000E-001	1.43842E-003	6	...........	-327.66
	871	174.4	4.39945E-001	-3.26377E-008	0.00000E+000	4.40000E-001	1.44844E-003	6	...........	-327.66
	872	174.6	4.29993E-001	-3.29635E-008	0.00000E+000	4.30000E-001	1.44748E-003	6	...........	-327.66
	873	174.8	4.20038E-001	-3.33512E-008	0.00000E+000	4.20000E-001	1.45291E-003	6	...........	-327.66
	874	175	4.09982E-001	-3.36304E-008	0.00000E+000	4.10000E-001	1.43454E-003	6	...........	-327.66
	875	175.2	3.99971E-001	-3.39719E-008	0.00000E+000	4.00000E-001	1.43959E-003	6	...........	-327.66
	876	175.4	3.89991E-001	-3.42989E-008	0.00000E+000	3.90000E-001	1.44668E-003	6	...........	-327.66
	877	175.6	3.79998E-001	-3.45760E-008	0.00000E+000	3.80000E-001	1.44543E-003	6	...........	-327.66
	878	175.8	3.70030E-001	-3.47861E-008	0.00000E+000	3.70000E-001	1.46248E-003	6	...........	-327.66
	879	176	3.59955E-001	-3.51075E-008	0.00000E+000	3.60000E-001	1.45446E-003	6	...........	-327.66
	880	176.2	3.50024E-001	-3.53490E-008	0.00000E+000	3.50000E-001	1.45136E-003	6	...........	-327.66
	881	176.4	3.40011E-001	-3.56203E-008	0.00000E+000	3.40000E-001	1.45236E-003	6	...........	-327.66
	882	176.6	3.30021E-001	-3.57746E-008	0.00000E+000	3.30000E-001	1.45134E-003	6	...........	-327.66
	883	176.8	3.19988E-001	-3.60360E-008	0.00000E+000	3.20000E-001	1.44431E-003	6	...........	-327.66
	884	177	3.09993E-001	-3.62505E-008	0.00000E+000	3.10000E-001	1.44152E-003	6	...........	-327.66
	885	177.2	2.99999E-001	-3.65105E-008	0.00000E+000	3.00000E-001	1.45169E-003	6	...........	-327.66
	886	177.4	2.90006E-001	-3.66091E-008	0.00000E+000	2.90000E-001	1.44839E-003	6	...........	-327.66
	887	177.6	2.79981E-001	-3.68534E-008	0.00000E+000	2.80000E-001	1.45405E-003	6	...........	-327.66
	888	177.8	2.70092E-001	-3.70064E-008	0.00000E+000	2.70000E-001	1.45008E-003	6	...........	-327.66
	889	178	2.60005E-001	-3.72612E-008	0.00000E+000	2.60000E-001	1.44864E-003	6	...........	-327.66
	890	178.2	2.50047E-001	-3.73233E-008	0.00000E+000	2.50000E-001	1.44681E-003	6	...........	-327.66
	891	178.4	2.40005E-001	-3.76074E-008	0.00000E+000	2.40000E-001	1.44004E-003	6	...........	-327.66
	892	178.6	2.30003E-001	-3.77579E-008	0.00000E+000	2.30000E-001	1.45314E-003	6	...........	-327.66
	893	178.8	2.20004E-001	-3.79817E-008	0.00000E+000	2.20000E-001	1.44261E-003	6	...........	-327.66
	894	179	2.10005E-001	-3.81099E-008	0.00000E+000	2.10000E-001	1.45858E-003	6	...........	-327.66
	895	179.2	2.00001E-001	-3.82960E-008	0.00000E+000	2.00000E-001	1.44661E-003	6	...........	-327.66
	896	179.4	1.90050E-001	-3.84150E-008	0.00000E+000	1.90000E-001	1.45138E-003	6	...........	-327.66
	897	179.6	1.80016E-001	-3.86333E-008	0.00000E+000	1.80000E-001	1.45133E-003	6	...........	-327.66
	898	179.8	1.70101E-001	-3.87733E-008	0.00000E+000	1.70000E-001	1.45183E-003	6	...........	-327.66
	899	180	1.60012E-001	-3.89868E-008	0.00000E+000	1.60000E-001	1.44888E-003	6	...........	-327.66
	900	180.2	1.50031E-001	-3.91633E-008	0.00000E+000	1.50000E-001	1.44332E-003	6	...........	-327.66