File: Test_Data_Files/20250509_ZD_IF0011_IIA42_E07_PBSair_PEDOT_CV50000.DTA
EXPLAIN
TAG	CV
TITLE	LABEL	CV50000	Test Identifier
DATE	LABEL	5/9/2025	Date
TIME	LABEL	15:27:29	Time
NOTES	NOTES	1	Notes...

PSTAT	PSTAT	REF600P-43058	Potentiostat
VINIT	POTEN	0.00000E+000	T	Initial E (V)
VLIMIT1	POTEN	-9.00000E-001	F	Scan Limit 1 (V)
VLIMIT2	POTEN	6.00000E-001	F	Scan Limit 2 (V)
VFINAL	POTEN	0.00000E+000	T	Final E (V)
SCANRATE	QUANT	4.99999E+004	Scan Rate (mV/s)
STEPSIZE	QUANT	1.00000E+001	Step Size (mV)
CYCLES	IQUANT	3	Cycles (#)
IMODE	SELECTOR	1	I/E Range Mode
IRANGE	QUANT	1.00000E-002	Max Current (mA)
AREA	QUANT	1.00000E+000	Sample Area (cm^2)
EQDELAY	QUANT	5.00000E+000	Equil. Time (s)
IRCOMP	SELECTOR	0	IRComp
PFCOR	QUANT	5.00000E+001	PF Corr. (ohm)
SAMPLINGMODE	SELECTOR	2	Sampling Mode
EOC	QUANT	0.1338838	Open Circuit (V)
ELECTRODETYPE	SELECTOR	0	Electrode Type
STRIPPING	TOGGLE	F	Used for Stripping
SEQUENCER	TOGGLE	TRUE	Run as Sequence
PSTATMODEL	IQUANT	7	Pstat Model
PSTATSECTION	LABEL	REF600P-43058	Pstat Section
PSTATSERIALNO	LABEL	43058	Pstat Serial Number
CTRLMODE	IQUANT	1	Control Mode
ELECTROMETER	IQUANT	0	RE=0 or CS=1
IESTAB	IQUANT	2	I/E Stability
CASPEED	IQUANT	4	Control Amp Speed
CONVENTION	IQUANT	1	Current Convention
ICHRANGE	IQUANT	2	Ich Range
ICHRANGEMODE	TOGGLE	F	Ich Auto Range
ICHOFFSETENABLE	TOGGLE	F	Ich Offset Enable
ICHOFFSET	QUANT	0	Ich Offset (V)
ICHFILTER	IQUANT	1	Ich Filter
VCHRANGE	IQUANT	2	Vch Range
VCHRANGEMODE	TOGGLE	F	Vch Auto Range
VCHOFFSETENABLE	TOGGLE	F	Vch Offset Enable
VCHOFFSET	QUANT	0	Vch Offset (V)
VCHFILTER	IQUANT	1	Vch Filter
ACHRANGE	IQUANT	2	Ach Range
ACHOFFSETENABLE	TOGGLE	F	Ach Offset Enable
ACHOFFSET	QUANT	0	Ach Offset (V)
ACHFILTER	IQUANT	1	Ach Filter
IERANGELOWERLIMIT	IQUANT	1	I/E Range Lower Limit
IERANGEMODE	TOGGLE	F	I/E AutoRange
IERANGE	IQUANT	7	I/E Range
POSFEEDENABLE	TOGGLE	F	Positive Feedback IR Comp
POSFEEDRESISTANCE	QUANT	0	Positive Feedback Resistance (ohm)
ACHSELECT	IQUANT	4	Ach Select
SENSECABLEID	IQUANT	7	Sense Cable ID
PWRCABLEID	IQUANT	7	Power Cable ID
DCCALDATE	LABEL	5/8/2025	DC Calibration Date
ACCALDATE	LABEL	5/8/2025	AC Calibration Date
THERMOSELECT	IQUANT	1	Thermo Select
FRAMEWORKVERSION	LABEL	7.10.4	Framework Version
INSTRUMENTVERSION	LABEL	5.01	Instrument Version
COMMVERSION	LABEL	5.10	Communications Version
CPUPLDVERSION	LABEL	6.00	CPU PLD Version
CTRLPLDVERSION	LABEL	3.21	CTRL PLD Version
PSTATPLDVERSION	LABEL	0.00	PSTAT PLD Version
CURVE1	TABLE
	Pt	T	Vf	Im	Vu	Sig	Ach	IERange	Over	Temp
	#	s	V vs. Ref.	A	V	V	V	#	bits	deg C
	0	0.0002	1.33937E-001	1.06554E-008	0.00000E+000	1.33900E-001	1.19022E-003	7	...........	-327.66
	3	0.0008	1.03937E-001	-3.82762E-006	0.00000E+000	1.03900E-001	1.04022E-003	7	...........	-327.66
	6	0.0014	7.40873E-002	-6.53899E-006	0.00000E+000	7.39000E-002	1.21522E-003	7	...........	-327.66
	9	0.002	4.39873E-002	-8.69903E-006	0.00000E+000	4.39000E-002	1.11522E-003	7	...........	-327.66
	12	0.0026	1.42498E-002	-1.05580E-005	0.00000E+000	1.39000E-002	9.90224E-004	7	...........	-327.66
	15	0.0032	-1.60127E-002	-1.22318E-005	0.00000E+000	-1.61000E-002	9.40224E-004	7	...........	-327.66
	18	0.0038	-4.60502E-002	-1.37817E-005	0.00000E+000	-4.61000E-002	1.11522E-003	7	...........	-327.66
	21	0.0044	-7.60252E-002	-1.52384E-005	0.00000E+000	-7.61000E-002	1.19022E-003	7	...........	-327.66
	24	0.005	-1.05888E-001	-1.66264E-005	0.00000E+000	-1.06100E-001	1.14022E-003	7	...........	-327.66
	27	0.0056	-1.36063E-001	-1.79540E-005	0.00000E+000	-1.36100E-001	1.24022E-003	7	...........	-327.66
	30	0.0062	-1.65800E-001	-1.92400E-005	0.00000E+000	-1.66100E-001	1.11522E-003	7	...........	-327.66
	33	0.0068	-1.95963E-001	-2.04894E-005	0.00000E+000	-1.96100E-001	8.90224E-004	7	...........	-327.66
	36	0.0074	-2.25938E-001	-2.17021E-005	0.00000E+000	-2.26100E-001	9.90224E-004	7	...........	-327.66
	39	0.008	-2.55925E-001	-2.28802E-005	0.00000E+000	-2.56100E-001	1.11522E-003	7	...........	-327.66
	42	0.0086	-2.85800E-001	-2.40274E-005	0.00000E+000	-2.86100E-001	1.09022E-003	7	...........	-327.66
	45	0.0092	-3.16063E-001	-2.51530E-005	0.00000E+000	-3.16100E-001	1.09022E-003	7	...........	-327.66
	48	0.0098	-3.45838E-001	-2.62367E-005	0.00000E+000	-3.46100E-001	9.65224E-004	7	...........	-327.66
	51	0.0104	-3.75925E-001	-2.72943E-005	0.00000E+000	-3.76100E-001	1.11522E-003	7	...........	-327.66
	54	0.011	-4.05825E-001	-2.83252E-005	0.00000E+000	-4.06100E-001	1.16522E-003	7	...........	-327.66
	57	0.0116	-4.35950E-001	-2.93248E-005	0.00000E+000	-4.36100E-001	1.14022E-003	7	...........	-327.66
	60	0.0122	-4.65725E-001	-3.02890E-005	0.00000E+000	-4.66100E-001	1.11522E-003	7	...........	-327.66
	63	0.0128	-4.95888E-001	-3.12226E-005	0.00000E+000	-4.96100E-001	1.14022E-003	7	...........	-327.66
	66	0.0134	-5.25713E-001	-3.21167E-005	0.00000E+000	-5.26100E-001	1.24022E-003	7	...........	-327.66
	69	0.014	-5.55788E-001	-3.29781E-005	0.00000E+000	-5.56100E-001	1.29022E-003	7	...........	-327.66
	72	0.0146	-5.85738E-001	-3.37972E-005	0.00000E+000	-5.86100E-001	1.09022E-003	7	...........	-327.66
	75	0.0152	-6.15800E-001	-3.45668E-005	0.00000E+000	-6.16100E-001	9.40224E-004	7	...........	-327.66
	78	0.0158	-6.45650E-001	-3.52912E-005	0.00000E+000	-6.46100E-001	1.16522E-003	7	...........	-327.66
	81	0.0164	-6.75675E-001	-3.59487E-005	0.00000E+000	-6.76100E-001	1.11522E-003	7	...........	-327.66
	84	0.017	-7.05688E-001	-3.65481E-005	0.00000E+000	-7.06100E-001	1.11522E-003	7	...........	-327.66
	87	0.0176	-7.35800E-001	-3.70729E-005	0.00000E+000	-7.36100E-001	1.09022E-003	7	...........	-327.66
	90	0.0182	-7.65675E-001	-3.75012E-005	0.00000E+000	-7.66100E-001	1.09022E-003	7	...........	-327.66
	93	0.0188	-7.95700E-001	-3.78240E-005	0.00000E+000	-7.96100E-001	1.11522E-003	7	...........	-327.66
	96	0.0194	-8.25738E-001	-3.80165E-005	0.00000E+000	-8.26100E-001	1.01522E-003	7	...........	-327.66
	99	0.02	-8.55838E-001	-3.80343E-005	0.00000E+000	-8.56100E-001	1.24022E-003	7	...........	-327.66
	102	0.0206	-8.85613E-001	-3.78420E-005	0.00000E+000	-8.86100E-001	1.04022E-003	7	...........	-327.66
	105	0.0212	-8.75938E-001	-3.27061E-005	0.00000E+000	-8.76100E-001	1.06522E-003	7	...........	-327.66
	108	0.0218	-8.45838E-001	-2.65295E-005	0.00000E+000	-8.46100E-001	9.65224E-004	7	...........	-327.66
	111	0.0224	-8.15950E-001	-2.15098E-005	0.00000E+000	-8.16100E-001	9.65224E-004	7	...........	-327.66
	114	0.023	-7.85788E-001	-1.71907E-005	0.00000E+000	-7.86100E-001	1.01522E-003	7	...........	-327.66
	117	0.0236	-7.55863E-001	-1.33764E-005	0.00000E+000	-7.56100E-001	1.19022E-003	7	...........	-327.66
	120	0.0242	-7.25800E-001	-9.96295E-006	0.00000E+000	-7.26100E-001	1.04022E-003	7	...........	-327.66
	123	0.0248	-6.96000E-001	-6.87803E-006	0.00000E+000	-6.96100E-001	1.04022E-003	7	...........	-327.66
	126	0.0254	-6.65850E-001	-4.07565E-006	0.00000E+000	-6.66100E-001	1.06522E-003	7	...........	-327.66
	129	0.026	-6.35938E-001	-1.49880E-006	0.00000E+000	-6.36100E-001	1.11522E-003	7	...........	-327.66
	132	0.0266	-6.05975E-001	9.01527E-007	0.00000E+000	-6.06100E-001	1.16522E-003	7	...........	-327.66
	135	0.0272	-5.76063E-001	3.16158E-006	0.00000E+000	-5.76100E-001	1.09022E-003	7	...........	-327.66
	138	0.0278	-5.46038E-001	5.33288E-006	0.00000E+000	-5.46100E-001	9.90224E-004	7	...........	-327.66
	141	0.0284	-5.16013E-001	7.44842E-006	0.00000E+000	-5.16100E-001	1.01522E-003	7	...........	-327.66
	144	0.029	-4.86075E-001	9.53645E-006	0.00000E+000	-4.86100E-001	1.21522E-003	7	...........	-327.66
	147	0.0296	-4.56113E-001	1.16132E-005	0.00000E+000	-4.56100E-001	1.14022E-003	7	...........	-327.66
	150	0.0302	-4.25988E-001	1.36810E-005	0.00000E+000	-4.26100E-001	1.21522E-003	7	...........	-327.66
	153	0.0308	-3.96063E-001	1.57305E-005	0.00000E+000	-3.96100E-001	1.21522E-003	7	...........	-327.66
	156	0.0314	-3.66163E-001	1.77408E-005	0.00000E+000	-3.66100E-001	1.06522E-003	7	...........	-327.66
	159	0.032	-3.36075E-001	1.96863E-005	0.00000E+000	-3.36100E-001	1.29022E-003	7	...........	-327.66
	162	0.0326	-3.06075E-001	2.15281E-005	0.00000E+000	-3.06100E-001	9.65224E-004	7	...........	-327.66
	165	0.0332	-2.76013E-001	2.32416E-005	0.00000E+000	-2.76100E-001	1.04022E-003	7	...........	-327.66
	168	0.0338	-2.46088E-001	2.48163E-005	0.00000E+000	-2.46100E-001	1.19022E-003	7	...........	-327.66
	171	0.0344	-2.16050E-001	2.62302E-005	0.00000E+000	-2.16100E-001	1.11522E-003	7	...........	-327.66
	174	0.035	-1.86175E-001	2.74851E-005	0.00000E+000	-1.86100E-001	1.19022E-003	7	...........	-327.66
	177	0.0356	-1.56088E-001	2.85908E-005	0.00000E+000	-1.56100E-001	1.09022E-003	7	...........	-327.66
	180	0.0362	-1.26138E-001	2.95502E-005	0.00000E+000	-1.26100E-001	1.11522E-003	7	...........	-327.66
	183	0.0368	-9.61752E-002	3.03863E-005	0.00000E+000	-9.61000E-002	1.19022E-003	7	...........	-327.66
	186	0.0374	-6.60752E-002	3.11089E-005	0.00000E+000	-6.61000E-002	1.11522E-003	7	...........	-327.66
	189	0.038	-3.60502E-002	3.17357E-005	0.00000E+000	-3.61000E-002	1.09022E-003	7	...........	-327.66
	192	0.0386	-6.16269E-003	3.22751E-005	0.00000E+000	-6.10001E-003	1.04022E-003	7	...........	-327.66
	195	0.0392	2.39373E-002	3.27396E-005	0.00000E+000	2.39000E-002	1.04022E-003	7	...........	-327.66
	198	0.0398	5.38873E-002	3.31144E-005	0.00000E+000	5.39000E-002	1.19022E-003	7	...........	-327.66
	201	0.0404	8.38748E-002	3.34070E-005	0.00000E+000	8.39000E-002	1.09022E-003	7	...........	-327.66
	204	0.041	1.13837E-001	3.36197E-005	0.00000E+000	1.13900E-001	8.90224E-004	7	...........	-327.66
	207	0.0416	1.43887E-001	3.37535E-005	0.00000E+000	1.43900E-001	1.11522E-003	7	...........	-327.66
	210	0.0422	1.73937E-001	3.38270E-005	0.00000E+000	1.73900E-001	1.14022E-003	7	...........	-327.66
	213	0.0428	2.03875E-001	3.38285E-005	0.00000E+000	2.03900E-001	1.04022E-003	7	...........	-327.66
	216	0.0434	2.33912E-001	3.37828E-005	0.00000E+000	2.33900E-001	1.01522E-003	7	...........	-327.66
	219	0.044	2.63812E-001	3.36762E-005	0.00000E+000	2.63900E-001	1.16522E-003	7	...........	-327.66
	222	0.0446	2.93812E-001	3.35230E-005	0.00000E+000	2.93900E-001	1.16522E-003	7	...........	-327.66
	225	0.0452	3.23875E-001	3.33304E-005	0.00000E+000	3.23900E-001	1.09022E-003	7	...........	-327.66
	228	0.0458	3.53887E-001	3.31057E-005	0.00000E+000	3.53900E-001	1.14022E-003	7	...........	-327.66
	231	0.0464	3.83775E-001	3.28531E-005	0.00000E+000	3.83900E-001	1.09022E-003	7	...........	-327.66
	234	0.047	4.13837E-001	3.25876E-005	0.00000E+000	4.13900E-001	1.14022E-003	7	...........	-327.66
	237	0.0476	4.43975E-001	3.23093E-005	0.00000E+000	4.43900E-001	1.19022E-003	7	...........	-327.66
	240	0.0482	4.73887E-001	3.20330E-005	0.00000E+000	4.73900E-001	1.21522E-003	7	...........	-327.66
	243	0.0488	5.03887E-001	3.17770E-005	0.00000E+000	5.03900E-001	1.14022E-003	7	...........	-327.66
	246	0.0494	5.33875E-001	3.15332E-005	0.00000E+000	5.33900E-001	1.06522E-003	7	...........	-327.66
	249	0.05	5.63850E-001	3.13362E-005	0.00000E+000	5.63900E-001	1.11522E-003	7	...........	-327.66
	252	0.0506	5.93800E-001	3.11729E-005	0.00000E+000	5.93900E-001	1.29022E-003	7	...........	-327.66
	253	0.0508	6.03937E-001	3.11256E-005	0.00000E+000	6.03900E-001	1.19022E-003	7	...........	-327.66
CURVE2	TABLE
	Pt	T	Vf	Im	Vu	Sig	Ach	IERange	Over	Temp
	#	s	V vs. Ref.	A	V	V	V	#	bits	deg C
	254	0.051	5.89912E-001	2.77427E-005	0.00000E+000	5.90000E-001	1.14022E-003	7	...........	-327.66
	258	0.0518	5.49950E-001	1.91648E-005	0.00000E+000	5.50000E-001	1.01522E-003	7	...........	-327.66
	262	0.0526	5.10037E-001	1.34662E-005	0.00000E+000	5.10000E-001	1.14022E-003	7	...........	-327.66
	266	0.0534	4.69887E-001	9.00988E-006	0.00000E+000	4.70000E-001	1.16522E-003	7	...........	-327.66
	270	0.0542	4.30037E-001	5.30588E-006	0.00000E+000	4.30000E-001	1.04022E-003	7	...........	-327.66
	274	0.055	3.90012E-001	2.10219E-006	0.00000E+000	3.90000E-001	1.09022E-003	7	...........	-327.66
	278	0.0558	3.50100E-001	-7.32196E-007	0.00000E+000	3.50000E-001	1.09022E-003	7	...........	-327.66
	282	0.0566	3.10062E-001	-3.28429E-006	0.00000E+000	3.10000E-001	1.06522E-003	7	...........	-327.66
	286	0.0574	2.70200E-001	-5.61511E-006	0.00000E+000	2.70000E-001	1.06522E-003	7	...........	-327.66
	290	0.0582	2.30087E-001	-7.77066E-006	0.00000E+000	2.30000E-001	9.90224E-004	7	...........	-327.66
	294	0.059	1.90125E-001	-9.78418E-006	0.00000E+000	1.90000E-001	9.90224E-004	7	...........	-327.66
	298	0.0598	1.50200E-001	-1.16732E-005	0.00000E+000	1.50000E-001	1.06522E-003	7	...........	-327.66
	302	0.0606	1.10175E-001	-1.34762E-005	0.00000E+000	1.10000E-001	1.14022E-003	7	...........	-327.66
	306	0.0614	7.02123E-002	-1.51992E-005	0.00000E+000	7.00000E-002	9.65224E-004	7	...........	-327.66
	310	0.0622	3.01748E-002	-1.68611E-005	0.00000E+000	3.00000E-002	1.14022E-003	7	...........	-327.66
	314	0.063	-9.70019E-003	-1.84604E-005	0.00000E+000	-1.00000E-002	1.24022E-003	7	...........	-327.66
	318	0.0638	-4.98002E-002	-2.00168E-005	0.00000E+000	-5.00000E-002	1.14022E-003	7	...........	-327.66
	322	0.0646	-8.97502E-002	-2.15298E-005	0.00000E+000	-9.00000E-002	1.09022E-003	7	...........	-327.66
	326	0.0654	-1.29738E-001	-2.30005E-005	0.00000E+000	-1.30000E-001	1.16522E-003	7	...........	-327.66
	330	0.0662	-1.69738E-001	-2.44184E-005	0.00000E+000	-1.70000E-001	1.06522E-003	7	...........	-327.66
	334	0.067	-2.09738E-001	-2.57979E-005	0.00000E+000	-2.10000E-001	1.06522E-003	7	...........	-327.66
	338	0.0678	-2.49800E-001	-2.71328E-005	0.00000E+000	-2.50000E-001	1.01522E-003	7	...........	-327.66
	342	0.0686	-2.89713E-001	-2.84125E-005	0.00000E+000	-2.90000E-001	1.16522E-003	7	...........	-327.66
	346	0.0694	-3.29838E-001	-2.96444E-005	0.00000E+000	-3.30000E-001	1.19022E-003	7	...........	-327.66
	350	0.0702	-3.69688E-001	-3.08140E-005	0.00000E+000	-3.70000E-001	1.16522E-003	7	...........	-327.66
	354	0.071	-4.09738E-001	-3.19307E-005	0.00000E+000	-4.10000E-001	1.21522E-003	7	...........	-327.66
	358	0.0718	-4.49613E-001	-3.29738E-005	0.00000E+000	-4.50000E-001	1.16522E-003	7	...........	-327.66
	362	0.0726	-4.89688E-001	-3.39475E-005	0.00000E+000	-4.90000E-001	1.01522E-003	7	...........	-327.66
	366	0.0734	-5.29738E-001	-3.48451E-005	0.00000E+000	-5.30000E-001	1.16522E-003	7	...........	-327.66
	370	0.0742	-5.69663E-001	-3.56640E-005	0.00000E+000	-5.70000E-001	1.01522E-003	7	...........	-327.66
	374	0.075	-6.09688E-001	-3.63933E-005	0.00000E+000	-6.10000E-001	1.24022E-003	7	...........	-327.66
	378	0.0758	-6.49650E-001	-3.70196E-005	0.00000E+000	-6.50000E-001	1.04022E-003	7	...........	-327.66
	382	0.0766	-6.89650E-001	-3.75327E-005	0.00000E+000	-6.90000E-001	1.14022E-003	7	...........	-327.66
	386	0.0774	-7.29663E-001	-3.79155E-005	0.00000E+000	-7.30000E-001	9.65224E-004	7	...........	-327.66
	390	0.0782	-7.69688E-001	-3.81350E-005	0.00000E+000	-7.70000E-001	1.09022E-003	7	...........	-327.66
	394	0.079	-8.09650E-001	-3.81380E-005	0.00000E+000	-8.10000E-001	1.16522E-003	7	...........	-327.66
	398	0.0798	-8.49663E-001	-3.78615E-005	0.00000E+000	-8.50000E-001	1.09022E-003	7	...........	-327.66
	402	0.0806	-8.89700E-001	-3.72047E-005	0.00000E+000	-8.90000E-001	1.06522E-003	7	...........	-327.66
	406	0.0814	-8.69713E-001	-2.95071E-005	0.00000E+000	-8.70000E-001	1.11522E-003	7	...........	-327.66
	410	0.0822	-8.29663E-001	-2.18541E-005	0.00000E+000	-8.30000E-001	1.14022E-003	7	...........	-327.66
	414	0.083	-7.89688E-001	-1.58123E-005	0.00000E+000	-7.90000E-001	1.09022E-003	7	...........	-327.66
	418	0.0838	-7.49725E-001	-1.08403E-005	0.00000E+000	-7.50000E-001	1.11522E-003	7	...........	-327.66
	422	0.0846	-7.09675E-001	-6.69076E-006	0.00000E+000	-7.10000E-001	1.19022E-003	7	...........	-327.66
	426	0.0854	-6.69700E-001	-3.17078E-006	0.00000E+000	-6.70000E-001	1.11522E-003	7	...........	-327.66
	430	0.0862	-6.29763E-001	-1.04860E-007	0.00000E+000	-6.30000E-001	1.24022E-003	7	...........	-327.66
	434	0.087	-5.89850E-001	2.67602E-006	0.00000E+000	-5.90000E-001	1.06522E-003	7	...........	-327.66
	438	0.0878	-5.49838E-001	5.31888E-006	0.00000E+000	-5.50000E-001	1.21522E-003	7	...........	-327.66
	442	0.0886	-5.09838E-001	7.94724E-006	0.00000E+000	-5.10000E-001	1.11522E-003	7	...........	-327.66
	446	0.0894	-4.69825E-001	1.06511E-005	0.00000E+000	-4.70000E-001	1.11522E-003	7	...........	-327.66
	450	0.0902	-4.29950E-001	1.34667E-005	0.00000E+000	-4.30000E-001	1.21522E-003	7	...........	-327.66
	454	0.091	-3.90063E-001	1.63706E-005	0.00000E+000	-3.90000E-001	1.19022E-003	7	...........	-327.66
	458	0.0918	-3.50038E-001	1.92710E-005	0.00000E+000	-3.50000E-001	1.06522E-003	7	...........	-327.66
	462	0.0926	-3.09988E-001	2.20579E-005	0.00000E+000	-3.10000E-001	9.90224E-004	7	...........	-327.66
	466	0.0934	-2.69938E-001	2.46013E-005	0.00000E+000	-2.70000E-001	1.11522E-003	7	...........	-327.66
	470	0.0942	-2.29925E-001	2.68086E-005	0.00000E+000	-2.30000E-001	1.14022E-003	7	...........	-327.66
	474	0.095	-1.89938E-001	2.86638E-005	0.00000E+000	-1.90000E-001	1.16522E-003	7	...........	-327.66
	478	0.0958	-1.50100E-001	3.01640E-005	0.00000E+000	-1.50000E-001	9.65224E-004	7	...........	-327.66
	482	0.0966	-1.10125E-001	3.13784E-005	0.00000E+000	-1.10000E-001	1.24022E-003	7	...........	-327.66
	486	0.0974	-7.00002E-002	3.23506E-005	0.00000E+000	-7.00000E-002	1.14022E-003	7	...........	-327.66
	490	0.0982	-3.01002E-002	3.31439E-005	0.00000E+000	-3.00000E-002	1.11522E-003	7	...........	-327.66
	494	0.099	9.93731E-003	3.37620E-005	0.00000E+000	9.99999E-003	9.90224E-004	7	...........	-327.66
[...]
	702	0.1406	-8.89738E-001	-3.68416E-005	0.00000E+000	-8.90000E-001	1.01522E-003	7	...........	-327.66
	706	0.1414	-8.69650E-001	-2.90268E-005	0.00000E+000	-8.70000E-001	1.11522E-003	7	...........	-327.66
	710	0.1422	-8.29675E-001	-2.12795E-005	0.00000E+000	-8.30000E-001	1.16522E-003	7	...........	-327.66
	714	0.143	-7.89700E-001	-1.52032E-005	0.00000E+000	-7.90000E-001	1.11522E-003	7	...........	-327.66
	718	0.1438	-7.49763E-001	-1.02795E-005	0.00000E+000	-7.50000E-001	1.09022E-003	7	...........	-327.66
	722	0.1446	-7.09700E-001	-6.23070E-006	0.00000E+000	-7.10000E-001	1.14022E-003	7	...........	-327.66
	726	0.1454	-6.69763E-001	-2.84673E-006	0.00000E+000	-6.70000E-001	1.14022E-003	7	...........	-327.66
	730	0.1462	-6.29788E-001	8.26652E-008	0.00000E+000	-6.30000E-001	9.65224E-004	7	...........	-327.66
	734	0.147	-5.89888E-001	2.74128E-006	0.00000E+000	-5.90000E-001	1.11522E-003	7	...........	-327.66
	738	0.1478	-5.49763E-001	5.28787E-006	0.00000E+000	-5.50000E-001	1.24022E-003	7	...........	-327.66
	742	0.1486	-5.09788E-001	7.86073E-006	0.00000E+000	-5.10000E-001	1.09022E-003	7	...........	-327.66
	746	0.1494	-4.69738E-001	1.05438E-005	0.00000E+000	-4.70000E-001	1.11522E-003	7	...........	-327.66
	750	0.1502	-4.29938E-001	1.33785E-005	0.00000E+000	-4.30000E-001	1.19022E-003	7	...........	-327.66
	754	0.151	-3.89938E-001	1.63471E-005	0.00000E+000	-3.90000E-001	1.16522E-003	7	...........	-327.66
	758	0.1518	-3.50038E-001	1.93550E-005	0.00000E+000	-3.50000E-001	1.14022E-003	7	...........	-327.66
	762	0.1526	-3.09975E-001	2.22597E-005	0.00000E+000	-3.10000E-001	1.24022E-003	7	...........	-327.66
	766	0.1534	-2.70000E-001	2.49221E-005	0.00000E+000	-2.70000E-001	1.21522E-003	7	...........	-327.66
	770	0.1542	-2.30038E-001	2.72144E-005	0.00000E+000	-2.30000E-001	1.09022E-003	7	...........	-327.66
	774	0.155	-1.90038E-001	2.91241E-005	0.00000E+000	-1.90000E-001	1.11522E-003	7	...........	-327.66
	778	0.1558	-1.50088E-001	3.06528E-005	0.00000E+000	-1.50000E-001	1.14022E-003	7	...........	-327.66
	782	0.1566	-1.09988E-001	3.18672E-005	0.00000E+000	-1.10000E-001	1.11522E-003	7	...........	-327.66
	786	0.1574	-7.01377E-002	3.28344E-005	0.00000E+000	-7.00000E-002	1.11522E-003	7	...........	-327.66
	790	0.1582	-3.00127E-002	3.36177E-005	0.00000E+000	-3.00000E-002	1.01522E-003	7	...........	-327.66
	794	0.159	9.93731E-003	3.42036E-005	0.00000E+000	9.99999E-003	1.11522E-003	7	...........	-327.66
	798	0.1598	4.99623E-002	3.46196E-005	0.00000E+000	5.00000E-002	1.16522E-003	7	...........	-327.66
	802	0.1606	8.99123E-002	3.48947E-005	0.00000E+000	9.00000E-002	1.11522E-003	7	...........	-327.66
	806	0.1614	1.29912E-001	3.50472E-005	0.00000E+000	1.30000E-001	9.15224E-004	7	...........	-327.66
	810	0.1622	1.70112E-001	3.50877E-005	0.00000E+000	1.70000E-001	1.01522E-003	7	...........	-327.66
	814	0.163	2.09962E-001	3.50344E-005	0.00000E+000	2.10000E-001	1.06522E-003	7	...........	-327.66
	818	0.1638	2.50000E-001	3.48902E-005	0.00000E+000	2.50000E-001	9.90224E-004	7	...........	-327.66
	822	0.1646	2.89875E-001	3.46654E-005	0.00000E+000	2.90000E-001	9.15224E-004	7	...........	-327.66
	826	0.1654	3.29987E-001	3.43793E-005	0.00000E+000	3.30000E-001	1.11522E-003	7	...........	-327.66
	830	0.1662	3.69912E-001	3.40513E-005	0.00000E+000	3.70000E-001	1.21522E-003	7	...........	-327.66
	834	0.167	4.09887E-001	3.36887E-005	0.00000E+000	4.10000E-001	1.06522E-003	7	...........	-327.66
	838	0.1678	4.50012E-001	3.33154E-005	0.00000E+000	4.50000E-001	1.14022E-003	7	...........	-327.66
	842	0.1686	4.89925E-001	3.29551E-005	0.00000E+000	4.90000E-001	1.09022E-003	7	...........	-327.66
	846	0.1694	5.30000E-001	3.26256E-005	0.00000E+000	5.30000E-001	1.06522E-003	7	...........	-327.66
	850	0.1702	5.70025E-001	3.23496E-005	0.00000E+000	5.70000E-001	1.16522E-003	7	...........	-327.66
	853	0.1708	5.99950E-001	3.21858E-005	0.00000E+000	6.00000E-001	1.11522E-003	7	...........	-327.66
CURVE4	TABLE
	Pt	T	Vf	Im	Vu	Sig	Ach	IERange	Over	Temp
	#	s	V vs. Ref.	A	V	V	V	#	bits	deg C
	854	0.171	5.89937E-001	2.93026E-005	0.00000E+000	5.90000E-001	1.19022E-003	7	...........	-327.66
	855	0.1712	5.79937E-001	2.65240E-005	0.00000E+000	5.80000E-001	1.06522E-003	7	...........	-327.66
	856	0.1714	5.70037E-001	2.41624E-005	0.00000E+000	5.70000E-001	9.90224E-004	7	...........	-327.66
	857	0.1716	5.59937E-001	2.20944E-005	0.00000E+000	5.60000E-001	1.16522E-003	7	...........	-327.66
	858	0.1718	5.50000E-001	2.02349E-005	0.00000E+000	5.50000E-001	9.90224E-004	7	...........	-327.66
	859	0.172	5.39937E-001	1.85414E-005	0.00000E+000	5.40000E-001	1.21522E-003	7	...........	-327.66
	860	0.1722	5.29987E-001	1.69787E-005	0.00000E+000	5.30000E-001	1.21522E-003	7	...........	-327.66
	861	0.1724	5.19975E-001	1.55260E-005	0.00000E+000	5.20000E-001	1.04022E-003	7	...........	-327.66
	862	0.1726	5.10037E-001	1.41696E-005	0.00000E+000	5.10000E-001	1.11522E-003	7	...........	-327.66
	863	0.1728	5.00025E-001	1.28847E-005	0.00000E+000	5.00000E-001	9.90224E-004	7	...........	-327.66
	864	0.173	4.90087E-001	1.16760E-005	0.00000E+000	4.90000E-001	1.11522E-003	7	...........	-327.66
	865	0.1732	4.79987E-001	1.05218E-005	0.00000E+000	4.80000E-001	1.11522E-003	7	...........	-327.66
	866	0.1734	4.69937E-001	9.42994E-006	0.00000E+000	4.70000E-001	9.90224E-004	7	...........	-327.66
	867	0.1736	4.59937E-001	8.38430E-006	0.00000E+000	4.60000E-001	1.19022E-003	7	...........	-327.66
	868	0.1738	4.50275E-001	7.37691E-006	0.00000E+000	4.50000E-001	1.14022E-003	7	...........	-327.66
	869	0.174	4.39987E-001	6.41603E-006	0.00000E+000	4.40000E-001	1.01522E-003	7	...........	-327.66
	870	0.1742	4.30037E-001	5.48890E-006	0.00000E+000	4.30000E-001	1.11522E-003	7	...........	-327.66
	871	0.1744	4.20050E-001	4.59753E-006	0.00000E+000	4.20000E-001	1.14022E-003	7	...........	-327.66
	872	0.1746	4.10050E-001	3.73241E-006	0.00000E+000	4.10000E-001	1.04022E-003	7	...........	-327.66
	873	0.1748	3.99937E-001	2.89930E-006	0.00000E+000	4.00000E-001	1.21522E-003	7	...........	-327.66
	874	0.175	3.90037E-001	2.09144E-006	0.00000E+000	3.90000E-001	1.09022E-003	7	...........	-327.66
	875	0.1752	3.80012E-001	1.30908E-006	0.00000E+000	3.80000E-001	1.06522E-003	7	...........	-327.66
	876	0.1754	3.70050E-001	5.52229E-007	0.00000E+000	3.70000E-001	1.09022E-003	7	...........	-327.66
	877	0.1756	3.60037E-001	-1.92622E-007	0.00000E+000	3.60000E-001	9.90224E-004	7	...........	-327.66
	878	0.1758	3.49950E-001	-9.05970E-007	0.00000E+000	3.50000E-001	9.65224E-004	7	...........	-327.66
	879	0.176	3.40100E-001	-1.60531E-006	0.00000E+000	3.40000E-001	1.06522E-003	7	...........	-327.66
	880	0.1762	3.30112E-001	-2.28391E-006	0.00000E+000	3.30000E-001	1.06522E-003	7	...........	-327.66
	881	0.1764	3.20062E-001	-2.95450E-006	0.00000E+000	3.20000E-001	1.19022E-003	7	...........	-327.66
	882	0.1766	3.10162E-001	-3.59809E-006	0.00000E+000	3.10000E-001	1.14022E-003	7	...........	-327.66
	883	0.1768	2.99987E-001	-4.23492E-006	0.00000E+000	3.00000E-001	1.06522E-003	7	...........	-327.66
	884	0.177	2.90075E-001	-4.85626E-006	0.00000E+000	2.90000E-001	1.01522E-003	7	...........	-327.66
	885	0.1772	2.80012E-001	-5.46109E-006	0.00000E+000	2.80000E-001	1.14022E-003	7	...........	-327.66
	886	0.1774	2.70150E-001	-6.05192E-006	0.00000E+000	2.70000E-001	1.09022E-003	7	...........	-327.66
	887	0.1776	2.60000E-001	-6.63875E-006	0.00000E+000	2.60000E-001	1.01522E-003	7	...........	-327.66
	888	0.1778	2.50237E-001	-7.20633E-006	0.00000E+000	2.50000E-001	1.19022E-003	7	...........	-327.66
	889	0.178	2.40125E-001	-7.76165E-006	0.00000E+000	2.40000E-001	9.40224E-004	7	...........	-327.66
	890	0.1782	2.30087E-001	-8.31423E-006	0.00000E+000	2.30000E-001	1.16522E-003	7	...........	-327.66
	891	0.1784	2.20037E-001	-8.85280E-006	0.00000E+000	2.20000E-001	1.01522E-003	7	...........	-327.66
	892	0.1786	2.10100E-001	-9.38538E-006	0.00000E+000	2.10000E-001	1.09022E-003	7	...........	-327.66
	893	0.1788	2.00125E-001	-9.90770E-006	0.00000E+000	2.00000E-001	9.65224E-004	7	...........	-327.66
	894	0.179	1.90137E-001	-1.04163E-005	0.00000E+000	1.90000E-001	1.09022E-003	7	...........	-327.66
	895	0.1792	1.80087E-001	-1.09233E-005	0.00000E+000	1.80000E-001	1.11522E-003	7	...........	-327.66
	896	0.1794	1.70162E-001	-1.14167E-005	0.00000E+000	1.70000E-001	1.19022E-003	7	...........	-327.66
	897	0.1796	1.60200E-001	-1.19092E-005	0.00000E+000	1.60000E-001	1.09022E-003	7	...........	-327.66
	898	0.1798	1.50175E-001	-1.23955E-005	0.00000E+000	1.50000E-001	1.24022E-003	7	...........	-327.66
	899	0.18	1.40212E-001	-1.28714E-005	0.00000E+000	1.40000E-001	1.14022E-003	7	...........	-327.66
	900	0.1802	1.30200E-001	-1.33412E-005	0.00000E+000	1.30000E-001	1.09022E-003	7	...........	-327.66